SpectraSuite Data File
++++++++++++++++++++++++++++++++++++
Date: Fri Feb 01 16:58:54 EST 2013
User: group
Dark Spectrum Present: No
Reference Spectrum Present: No
Number of Sampled Component Spectra: 1
Spectrometers: USB2E7196
Integration Time (usec): 35000 (USB2E7196)
Spectra Averaged: 100 (USB2E7196)
Boxcar Smoothing: 10 (USB2E7196)
Correct for Electrical Dark: No (USB2E7196)
Strobe/Lamp Enabled: No (USB2E7196)
Correct for Detector Non-linearity: No (USB2E7196)
Correct for Stray Light: No (USB2E7196)
Number of Pixels in Processed Spectrum: 2048
>>>>>Begin Processed Spectral Data<<<<<
339.09	0.00
339.48	213.11
339.86	215.04
340.24	216.56
340.63	217.58
341.01	219.86
341.39	220.15
341.78	221.29
342.16	222.85
342.54	223.40
342.93	211.67
343.31	222.36
343.69	222.90
344.07	223.36
344.46	223.77
344.84	224.13
345.22	224.39
345.60	224.64
345.99	224.81
346.37	224.90
346.75	225.00
347.13	225.06
347.52	225.10
347.90	225.19
348.28	225.21
348.66	225.26
349.05	225.30
349.43	225.35
349.81	225.43
350.19	225.48
350.57	225.52
350.96	225.56
351.34	225.66
351.72	225.75
352.10	225.84
352.48	225.90
352.87	225.98
353.25	226.04
353.63	226.11
354.01	226.19
354.39	226.28
354.77	226.35
355.15	226.45
355.54	226.52
355.92	226.51
356.30	226.58
356.68	226.70
357.06	226.75
357.44	226.81
357.82	226.85
358.20	226.91
358.58	226.99
358.97	227.06
359.35	227.12
359.73	227.17
360.11	227.19
360.49	227.25
360.87	227.28
361.25	227.35
361.63	227.43
362.01	227.46
362.39	227.51
362.77	227.56
363.15	227.58
363.53	227.63
363.91	227.70
364.29	227.74
364.67	227.63
365.05	227.65
365.43	227.67
365.81	227.70
366.19	227.72
366.57	227.75
366.95	227.74
367.33	227.72
367.71	227.72
368.09	227.75
368.47	227.73
368.85	227.72
369.23	227.70
369.61	227.66
369.99	227.68
370.37	227.64
370.75	227.63
371.13	227.58
371.51	227.54
371.89	227.53
372.27	227.47
372.65	227.49
373.03	227.44
373.41	227.39
373.78	227.37
374.16	227.26
374.54	227.16
374.92	227.11
375.30	227.07
375.68	226.99
376.06	226.91
376.44	226.89
376.82	226.87
377.19	226.81
377.57	226.73
377.95	226.69
378.33	226.62
378.71	226.52
379.09	226.47
379.47	226.43
379.84	226.34
380.22	226.30
380.60	226.23
380.98	226.17
381.36	226.11
381.73	226.00
382.11	225.98
382.49	225.97
382.87	225.88
383.25	225.82
383.62	225.87
384.00	225.80
384.38	225.72
384.76	225.64
385.13	225.64
385.51	225.58
385.89	225.50
386.27	225.46
386.64	225.43
387.02	225.38
387.40	225.29
387.78	225.28
388.15	225.25
388.53	225.21
388.91	225.17
389.29	225.12
389.66	225.13
390.04	225.09
390.42	225.08
390.79	225.12
391.17	225.11
391.55	225.00
391.92	225.02
392.30	225.02
392.68	225.01
393.05	224.99
393.43	225.00
393.81	224.99
394.18	224.97
394.56	224.96
394.94	225.00
395.31	225.01
395.69	225.04
396.06	225.05
396.44	225.06
396.82	225.08
397.19	225.15
397.57	225.15
397.95	225.21
398.32	225.16
398.70	225.21
399.07	225.29
399.45	225.35
399.82	225.40
400.20	225.46
400.58	225.52
400.95	225.54
401.33	225.59
401.70	225.74
402.08	225.85
402.45	225.91
402.83	226.03
403.20	226.16
403.58	226.23
403.95	226.38
404.33	226.52
404.71	226.62
405.08	226.80
405.46	226.94
405.83	227.07
406.21	227.25
406.58	227.39
406.96	227.55
407.33	227.69
407.70	227.85
408.08	228.09
408.45	228.32
408.83	228.55
409.20	228.79
409.58	228.93
409.95	229.19
410.33	229.50
410.70	229.73
411.08	229.99
411.45	230.29
411.82	230.59
412.20	230.93
412.57	231.33
412.95	231.59
413.32	231.99
413.69	232.37
414.07	232.81
414.44	233.26
414.82	233.72
415.19	234.27
415.56	234.84
415.94	235.39
416.31	235.97
416.68	236.60
417.06	237.32
417.43	238.00
417.81	238.78
418.18	239.53
418.55	240.37
418.93	241.27
419.30	242.18
419.67	243.10
420.04	244.03
420.42	245.07
420.79	246.24
421.16	247.37
421.54	248.58
421.91	249.79
422.28	251.05
422.66	252.38
423.03	253.70
423.40	255.01
423.77	256.42
424.15	257.89
424.52	259.38
424.89	261.02
425.26	262.54
425.64	263.97
426.01	265.60
426.38	267.26
426.75	268.91
427.13	270.63
427.50	272.44
427.87	274.31
428.24	276.12
428.61	277.88
428.99	279.81
429.36	281.91
429.73	283.97
430.10	286.01
430.47	288.01
430.85	290.11
431.22	292.36
431.59	294.72
431.96	296.91
432.33	299.34
432.70	301.66
433.08	304.52
433.45	307.14
433.82	309.70
434.19	312.58
434.56	315.39
434.93	318.02
435.30	320.66
435.68	323.53
436.05	326.37
436.42	329.18
436.79	331.69
437.16	334.36
437.53	337.18
437.90	339.93
438.27	342.69
438.64	345.47
439.01	348.04
439.38	350.26
439.75	352.40
440.13	354.87
440.50	357.20
440.87	359.03
441.24	360.95
441.61	363.09
441.98	364.52
442.35	366.31
442.72	368.13
443.09	369.89
443.46	370.89
443.83	371.47
444.20	371.90
444.57	372.75
444.94	373.04
445.31	373.32
445.68	373.69
446.05	373.72
446.42	373.37
446.79	372.96
447.16	372.50
447.53	372.26
447.90	371.14
448.27	369.98
448.64	368.41
449.01	367.27
449.37	365.33
449.74	363.48
450.11	361.28
450.48	358.84
450.85	356.29
451.22	354.19
451.59	352.17
451.96	350.29
452.33	347.70
452.70	345.36
453.07	342.63
453.43	339.77
453.80	337.08
454.17	334.40
454.54	331.87
454.91	329.22
455.28	326.54
455.65	324.05
456.02	321.62
456.38	319.47
456.75	316.87
457.12	314.63
457.49	312.43
457.86	310.21
458.23	308.37
458.59	306.36
458.96	304.27
459.33	302.43
459.70	300.59
460.07	299.09
460.43	297.38
460.80	295.77
461.17	294.35
461.54	292.84
461.91	291.43
462.27	289.97
462.64	288.71
463.01	287.40
463.38	286.14
463.74	284.82
464.11	283.66
464.48	282.65
464.85	281.55
465.21	280.71
465.58	279.84
465.95	278.74
466.32	277.84
466.68	276.97
467.05	276.11
467.42	275.25
467.78	274.36
468.15	273.52
468.52	272.85
468.88	272.01
469.25	271.26
469.62	270.70
469.98	270.08
470.35	269.46
470.72	268.87
471.08	268.23
471.45	267.70
471.82	267.17
472.18	266.60
472.55	266.19
472.92	265.70
473.28	265.24
473.65	264.82
474.02	264.41
474.38	264.05
474.75	263.72
475.11	263.39
475.48	263.15
475.85	262.93
476.21	262.71
476.58	262.53
476.94	262.44
477.31	262.28
477.67	262.09
478.04	262.02
478.41	261.99
478.77	262.07
479.14	262.03
479.50	262.05
479.87	262.11
480.23	262.17
480.60	262.23
480.96	262.36
481.33	262.57
481.69	262.76
482.06	262.95
482.42	263.19
482.79	263.44
483.15	263.74
483.52	264.10
483.88	264.47
484.25	264.87
484.61	265.31
484.98	265.74
485.34	266.30
485.71	266.85
486.07	267.41
486.44	267.97
486.80	268.64
487.17	269.40
487.53	270.18
487.90	271.05
488.26	271.96
488.62	272.92
488.99	273.86
489.35	274.94
489.72	276.04
490.08	277.20
490.44	278.44
490.81	279.79
491.17	281.13
491.54	282.56
491.90	284.03
492.26	285.66
492.63	287.38
492.99	289.17
493.36	291.08
493.72	293.13
494.08	295.18
494.45	297.45
494.81	299.76
495.17	302.18
495.54	304.69
495.90	307.40
496.26	310.20
496.63	313.19
496.99	316.27
497.35	319.49
497.72	322.87
498.08	326.35
498.44	329.99
498.80	333.95
499.17	338.02
499.53	342.21
499.89	346.54
500.26	351.05
500.62	355.67
500.98	360.61
501.34	365.66
501.71	370.96
502.07	376.33
502.43	381.95
502.79	387.76
503.16	393.81
503.52	400.00
503.88	406.39
504.24	412.90
504.60	419.71
504.97	426.82
505.33	434.06
505.69	441.76
506.05	449.47
506.41	457.26
506.78	465.28
507.14	473.69
507.50	482.30
507.86	491.25
508.22	500.36
508.59	509.49
508.95	518.93
509.31	528.71
509.67	538.70
510.03	548.83
510.39	559.26
510.75	570.04
511.12	580.88
511.48	592.06
511.84	603.41
512.20	614.73
512.56	626.49
512.92	638.52
513.28	650.68
513.64	662.98
514.00	675.45
514.37	688.29
514.73	701.18
515.09	714.01
515.45	727.17
515.81	740.55
516.17	754.26
516.53	768.23
516.89	782.15
517.25	796.17
517.61	810.43
517.97	824.75
518.33	838.84
518.69	853.40
519.05	868.09
519.41	883.05
519.77	898.41
520.13	913.62
520.49	928.80
520.85	943.90
521.21	959.29
521.57	975.34
521.93	990.72
522.29	1006.78
522.65	1022.79
523.01	1038.60
523.37	1054.40
523.73	1070.32
524.09	1086.12
524.45	1102.11
524.81	1118.38
525.17	1134.77
525.53	1151.27
525.89	1167.82
526.25	1184.23
526.61	1200.23
526.97	1216.74
527.33	1232.92
527.68	1249.18
528.04	1265.29
528.40	1281.58
528.76	1298.42
529.12	1314.67
529.48	1331.31
529.84	1346.91
530.20	1363.15
530.56	1379.81
530.91	1396.89
531.27	1413.29
531.63	1429.38
531.99	1445.57
532.35	1461.16
532.71	1476.75
533.07	1492.58
533.42	1508.22
533.78	1523.95
534.14	1539.94
534.50	1554.88
534.86	1570.32
535.21	1585.23
535.57	1600.94
535.93	1616.17
536.29	1630.52
536.65	1645.15
537.00	1659.58
537.36	1674.67
537.72	1688.91
538.08	1703.07
538.44	1716.52
538.79	1730.14
539.15	1743.45
539.51	1756.76
539.87	1770.95
540.22	1784.33
540.58	1797.88
540.94	1810.88
541.29	1823.44
541.65	1835.93
542.01	1848.83
542.37	1861.03
542.72	1873.08
543.08	1884.60
543.44	1896.78
543.79	1907.96
544.15	1918.74
544.51	1930.29
544.87	1940.99
545.22	1951.52
545.58	1961.58
545.94	1971.11
546.29	1980.88
546.65	1990.73
547.01	2000.17
547.36	2008.56
547.72	2016.95
548.07	2024.70
548.43	2032.67
548.79	2040.62
549.14	2048.01
549.50	2055.25
549.86	2062.70
550.21	2070.10
550.57	2077.10
550.92	2083.65
551.28	2090.53
551.64	2097.57
551.99	2103.75
552.35	2109.93
552.70	2116.21
553.06	2122.17
553.41	2128.56
553.77	2134.54
554.13	2140.48
554.48	2146.46
554.84	2152.17
555.19	2157.47
555.55	2162.79
555.90	2167.47
556.26	2172.42
556.61	2177.14
556.97	2181.63
557.32	2185.79
557.68	2189.97
558.03	2194.25
558.39	2197.86
558.74	2202.54
559.10	2206.49
559.45	2210.31
559.81	2214.70
560.16	2218.67
560.52	2222.05
560.87	2225.51
561.23	2228.12
561.58	2231.13
561.94	2233.80
562.29	2236.06
562.64	2238.85
563.00	2241.30
563.35	2244.84
563.71	2248.05
564.06	2251.37
564.42	2254.29
564.77	2257.09
565.12	2259.55
565.48	2261.76
565.83	2263.93
566.19	2265.51
566.54	2266.34
566.89	2267.69
567.25	2268.45
567.60	2269.71
567.96	2271.43
568.31	2272.35
568.66	2273.82
569.02	2274.55
569.37	2274.93
569.72	2275.97
570.08	2276.27
570.43	2276.46
570.78	2276.13
571.14	2274.74
571.49	2273.59
571.84	2273.41
572.20	2272.39
572.55	2271.51
572.90	2269.98
573.26	2268.71
573.61	2267.00
573.96	2265.79
574.31	2263.01
574.67	2260.13
575.02	2256.75
575.37	2253.58
575.72	2250.16
576.08	2246.79
576.43	2243.70
576.78	2240.37
577.13	2237.35
577.49	2234.40
577.84	2231.16
578.19	2227.51
578.54	2224.29
578.90	2220.38
579.25	2215.02
579.60	2210.17
579.95	2205.31
580.30	2200.55
580.66	2195.45
581.01	2190.75
581.36	2185.95
581.71	2181.90
582.06	2177.64
582.42	2173.41
582.77	2168.29
583.12	2163.74
583.47	2159.43
583.82	2154.58
584.17	2149.46
584.53	2144.23
584.88	2138.80
585.23	2133.26
585.58	2128.08
585.93	2122.65
586.28	2117.89
586.63	2113.08
586.98	2108.32
587.34	2103.74
587.69	2098.97
588.04	2094.09
588.39	2088.67
588.74	2082.22
589.09	2076.37
589.44	2069.87
589.79	2064.05
590.14	2058.70
590.49	2052.40
590.84	2046.12
591.19	2040.41
591.54	2034.18
591.89	2027.11
592.25	2020.44
592.60	2013.44
592.95	2006.03
593.30	1998.92
593.65	1991.53
594.00	1984.46
594.35	1977.25
594.70	1969.37
595.05	1962.42
595.40	1955.22
595.75	1947.83
596.10	1941.77
596.45	1935.15
596.80	1929.19
597.15	1922.76
597.50	1915.94
597.85	1909.57
598.19	1903.04
598.54	1895.87
598.89	1889.22
599.24	1883.36
599.59	1876.99
599.94	1870.82
600.29	1864.59
600.64	1858.02
600.99	1850.81
601.34	1844.28
601.69	1837.57
602.04	1830.83
602.39	1823.60
602.74	1816.86
603.08	1810.15
603.43	1803.59
603.78	1796.26
604.13	1789.14
604.48	1781.88
604.83	1774.97
605.18	1768.22
605.53	1760.31
605.87	1752.63
606.22	1745.60
606.57	1737.73
606.92	1730.51
607.27	1723.60
607.62	1716.81
607.96	1709.70
608.31	1703.22
608.66	1695.71
609.01	1688.18
609.36	1680.78
609.70	1672.86
610.05	1664.95
610.40	1657.47
610.75	1649.36
611.10	1641.95
611.44	1633.37
611.79	1625.48
612.14	1616.95
612.49	1607.89
612.83	1599.57
613.18	1591.50
613.53	1583.60
613.88	1575.25
614.22	1566.96
614.57	1558.29
614.92	1550.35
615.27	1542.92
615.61	1534.67
615.96	1526.62
616.31	1519.07
616.65	1511.71
617.00	1504.17
617.35	1496.48
617.70	1488.23
618.04	1479.77
618.39	1471.53
618.74	1464.21
619.08	1455.98
619.43	1448.34
619.78	1441.38
620.12	1434.35
620.47	1426.92
620.82	1418.58
621.16	1411.13
621.51	1403.59
621.85	1396.09
622.20	1387.48
622.55	1379.09
622.89	1371.19
623.24	1363.67
623.59	1356.30
623.93	1348.87
624.28	1341.63
624.62	1334.24
624.97	1326.94
625.32	1320.15
625.66	1313.11
626.01	1305.90
626.35	1298.43
626.70	1290.70
627.04	1282.99
627.39	1275.21
627.73	1267.72
628.08	1260.93
628.43	1253.75
628.77	1246.39
629.12	1238.83
629.46	1231.72
629.81	1224.32
630.15	1217.11
630.50	1209.63
630.84	1201.46
631.19	1193.42
631.53	1185.97
631.88	1178.34
632.22	1170.85
632.57	1163.49
632.91	1155.95
633.26	1148.56
633.60	1141.15
633.95	1134.10
634.29	1127.04
634.64	1120.32
634.98	1113.06
635.32	1105.93
635.67	1099.23
636.01	1092.57
636.36	1085.73
636.70	1079.20
637.05	1072.64
637.39	1066.15
637.73	1059.78
638.08	1053.91
638.42	1048.00
638.77	1041.60
639.11	1035.06
639.45	1028.68
639.80	1022.15
640.14	1015.81
640.49	1009.36
640.83	1003.10
641.17	996.85
641.52	990.54
641.86	984.06
642.20	978.17
642.55	971.84
642.89	965.34
643.23	958.88
643.58	953.15
643.92	946.98
644.26	940.99
644.61	934.94
644.95	928.94
645.29	922.48
645.64	915.77
645.98	909.49
646.32	903.60
646.66	897.62
647.01	891.90
647.35	886.18
647.69	880.32
648.04	874.75
648.38	869.05
648.72	863.23
649.06	857.28
649.41	851.37
649.75	845.44
650.09	839.59
650.43	833.86
650.78	827.74
651.12	821.82
651.46	816.03
651.80	810.41
652.14	804.98
652.49	799.54
652.83	794.41
653.17	788.74
653.51	783.11
653.85	777.74
654.20	772.10
654.54	766.12
654.88	760.42
655.22	754.71
655.56	749.08
655.90	743.58
656.25	738.35
656.59	733.09
656.93	728.10
657.27	723.01
657.61	717.56
657.95	712.52
658.29	707.46
658.64	702.29
658.98	696.97
659.32	691.52
659.66	686.36
660.00	681.08
660.34	676.11
660.68	671.24
661.02	666.22
661.36	661.55
661.70	657.12
662.05	652.75
662.39	648.39
662.73	643.91
663.07	639.56
663.41	635.08
663.75	630.61
664.09	626.00
664.43	621.55
664.77	617.49
665.11	613.30
665.45	609.21
665.79	605.20
666.13	601.09
666.47	597.07
666.81	592.94
667.15	588.81
667.49	584.86
667.83	581.02
668.17	577.10
668.51	572.97
668.85	568.91
669.19	565.05
669.53	561.24
669.87	557.40
670.21	553.68
670.55	550.08
670.89	546.59
671.23	543.20
671.57	539.70
671.91	536.13
672.25	532.54
672.58	529.03
672.92	525.50
673.26	522.35
673.60	519.20
673.94	516.08
674.28	513.14
674.62	510.26
674.96	507.15
675.30	504.26
675.64	501.31
675.97	498.53
676.31	495.66
676.65	492.70
676.99	489.96
677.33	487.09
677.67	484.26
678.01	481.30
678.34	478.31
678.68	475.44
679.02	472.65
679.36	469.94
679.70	467.23
680.04	464.52
680.37	461.70
680.71	458.91
681.05	456.35
681.39	453.66
681.73	451.03
682.06	448.51
682.40	445.93
682.74	443.44
683.08	440.89
683.42	438.29
683.75	435.81
684.09	433.23
684.43	430.82
684.77	428.37
685.10	425.97
685.44	423.63
685.78	421.38
686.12	419.13
686.45	416.82
686.79	414.51
687.13	412.33
687.46	410.11
687.80	407.92
688.14	405.64
688.48	403.57
688.81	401.30
689.15	399.17
689.49	397.04
689.82	394.95
690.16	392.82
690.50	390.88
690.83	388.94
691.17	386.98
691.51	385.07
691.84	383.25
692.18	381.37
692.52	379.45
692.85	377.48
693.19	375.61
693.52	373.76
693.86	371.97
694.20	370.19
694.53	368.39
694.87	366.56
695.21	364.78
695.54	362.96
695.88	361.26
696.21	359.54
696.55	357.90
696.88	356.24
697.22	354.61
697.56	353.00
697.89	351.38
698.23	349.79
698.56	348.20
698.90	346.62
699.23	344.99
699.57	343.45
699.90	341.96
700.24	340.40
700.58	338.92
700.91	337.43
701.25	336.00
701.58	334.67
701.92	333.30
702.25	331.95
702.59	330.55
702.92	329.25
703.26	327.91
703.59	326.58
703.93	325.40
704.26	324.21
704.60	322.90
704.93	321.61
705.26	320.35
705.60	319.16
705.93	317.93
706.27	316.88
706.60	315.83
706.94	314.73
707.27	313.63
707.61	312.57
707.94	311.59
708.27	310.50
708.61	309.38
708.94	308.40
709.28	307.42
709.61	306.52
709.94	305.57
710.28	304.59
710.61	303.64
710.95	302.52
711.28	301.56
711.61	300.64
711.95	299.74
712.28	298.78
712.61	297.80
712.95	296.92
713.28	296.01
713.61	295.05
713.95	294.17
714.28	293.29
714.61	292.40
714.95	291.50
715.28	290.64
715.61	289.78
715.95	288.90
716.28	288.00
716.61	287.11
716.95	286.25
717.28	285.49
717.61	284.73
717.94	283.99
718.28	283.18
718.61	282.42
718.94	281.67
719.27	281.03
719.61	280.40
719.94	279.75
720.27	279.03
720.60	278.39
720.94	277.74
721.27	277.15
721.60	276.58
721.93	275.98
722.27	275.43
722.60	274.87
722.93	274.32
723.26	273.82
723.59	273.28
723.93	272.72
724.26	272.15
724.59	271.54
724.92	271.04
725.25	270.57
725.59	270.05
725.92	269.58
726.25	269.04
726.58	268.52
726.91	268.03
727.24	267.57
727.57	267.10
727.91	266.60
728.24	266.13
728.57	265.63
728.90	265.16
729.23	264.68
729.56	264.26
729.89	263.79
730.22	263.25
730.55	262.81
730.89	262.40
731.22	261.98
731.55	261.57
731.88	261.14
732.21	260.71
732.54	260.29
732.87	259.86
733.20	259.48
733.53	259.11
733.86	258.71
734.19	258.33
734.52	257.94
734.85	257.66
735.18	257.25
735.51	256.90
735.84	256.53
736.17	256.18
736.50	255.78
736.83	255.53
737.16	255.26
737.49	254.92
737.82	254.55
738.15	254.21
738.48	253.88
738.81	253.57
739.14	253.22
739.47	252.91
739.80	252.62
740.13	252.32
740.46	251.99
740.79	251.63
741.12	251.31
741.45	250.98
741.78	250.63
742.11	250.36
742.44	250.06
742.77	249.78
743.10	249.48
743.43	249.16
743.75	248.82
744.08	248.66
744.41	248.38
744.74	248.13
745.07	247.84
745.40	247.62
745.73	247.40
746.06	247.16
746.39	246.91
746.71	246.61
747.04	246.32
747.37	246.03
747.70	245.83
748.03	245.58
748.36	245.40
748.68	245.13
749.01	244.84
749.34	244.59
749.67	244.40
750.00	244.17
750.33	244.01
750.65	243.80
750.98	243.44
751.31	243.22
751.64	243.00
751.97	242.85
752.29	242.61
752.62	242.34
752.95	242.11
753.28	241.91
753.60	241.73
753.93	241.55
754.26	241.39
754.59	241.15
754.91	240.98
755.24	240.73
755.57	240.56
755.90	240.40
756.22	240.18
756.55	239.96
756.88	239.75
757.20	239.51
757.53	239.29
757.86	239.15
758.19	239.00
758.51	238.82
758.84	238.60
759.17	238.41
759.49	238.24
759.82	238.14
760.15	238.00
760.47	237.83
760.80	237.66
761.13	237.51
761.45	237.35
761.78	237.19
762.11	237.05
762.43	236.89
762.76	236.75
763.08	236.64
763.41	236.48
763.74	236.37
764.06	236.22
764.39	236.09
764.71	235.90
765.04	235.75
765.37	235.63
765.69	235.49
766.02	235.35
766.34	235.26
766.67	235.08
767.00	234.94
767.32	234.91
767.65	234.85
767.97	234.74
768.30	234.62
768.62	234.52
768.95	234.43
769.27	234.34
769.60	234.24
769.92	234.11
770.25	234.00
770.57	233.89
770.90	233.79
771.22	233.71
771.55	233.64
771.87	233.56
772.20	233.47
772.52	233.49
772.85	233.57
773.17	233.47
773.50	233.38
773.82	233.30
774.15	233.15
774.47	233.01
774.80	232.91
775.12	232.88
775.45	232.78
775.77	232.70
776.09	232.62
776.42	232.53
776.74	232.54
777.07	232.47
777.39	232.39
777.72	232.30
778.04	232.20
778.36	232.11
778.69	232.04
779.01	231.98
779.33	231.80
779.66	231.61
779.98	231.53
780.31	231.47
780.63	231.47
780.95	231.42
781.28	231.35
781.60	231.27
781.92	231.22
782.25	231.15
782.57	231.09
782.89	231.04
783.22	231.00
783.54	230.88
783.86	230.84
784.19	230.78
784.51	230.81
784.83	230.79
785.16	230.72
785.48	230.68
785.80	230.59
786.12	230.56
786.45	230.51
786.77	230.50
787.09	230.46
787.42	230.35
787.74	230.30
788.06	230.26
788.38	230.22
788.71	230.14
789.03	230.10
789.35	230.07
789.67	229.99
789.99	229.96
790.32	229.92
790.64	229.88
790.96	229.91
791.28	229.79
791.61	229.71
791.93	229.72
792.25	229.63
792.57	229.67
792.89	229.60
793.21	229.55
793.54	229.48
793.86	229.40
794.18	229.34
794.50	229.27
794.82	229.22
795.14	229.21
795.47	229.20
795.79	229.17
796.11	229.12
796.43	229.08
796.75	229.01
797.07	228.97
797.39	228.92
797.71	228.83
798.04	228.82
798.36	228.81
798.68	228.73
799.00	228.74
799.32	228.67
799.64	228.68
799.96	228.66
800.28	228.64
800.60	228.64
800.92	228.62
801.24	228.55
801.56	228.52
801.89	228.43
802.21	228.41
802.53	228.36
802.85	228.31
803.17	228.31
803.49	228.26
803.81	228.22
804.13	228.17
804.45	228.10
804.77	228.05
805.09	227.99
805.41	227.95
805.73	227.91
806.05	227.84
806.37	227.78
806.69	227.72
807.01	227.69
807.33	227.64
807.65	227.59
807.97	227.66
808.28	227.64
808.60	227.63
808.92	227.56
809.24	227.60
809.56	227.56
809.88	227.50
810.20	227.50
810.52	227.48
810.84	227.45
811.16	227.43
811.48	227.43
811.80	227.45
812.12	227.47
812.43	227.44
812.75	227.46
813.07	227.45
813.39	227.44
813.71	227.38
814.03	227.36
814.35	227.37
814.67	227.32
814.98	227.29
815.30	227.29
815.62	227.27
815.94	227.20
816.26	227.24
816.58	227.23
816.89	227.19
817.21	227.17
817.53	227.17
817.85	227.20
818.17	227.20
818.48	227.16
818.80	227.13
819.12	227.12
819.44	227.08
819.76	227.07
820.07	227.06
820.39	227.09
820.71	227.08
821.03	227.08
821.34	227.04
821.66	227.08
821.98	227.06
822.30	227.05
822.61	227.08
822.93	227.03
823.25	227.03
823.57	227.05
823.88	227.07
824.20	227.05
824.52	227.02
824.83	227.01
825.15	227.00
825.47	227.01
825.79	226.99
826.10	226.96
826.42	226.96
826.74	226.97
827.05	226.97
827.37	226.98
827.69	226.94
828.00	226.96
828.32	226.90
828.64	226.86
828.95	226.90
829.27	226.89
829.58	226.87
829.90	226.84
830.22	226.83
830.53	226.78
830.85	226.78
831.17	226.74
831.48	226.73
831.80	226.72
832.11	226.70
832.43	226.68
832.75	226.68
833.06	226.70
833.38	226.64
833.69	226.58
834.01	226.57
834.32	226.57
834.64	226.53
834.96	226.53
835.27	226.55
835.59	226.53
835.90	226.48
836.22	226.47
836.53	226.47
836.85	226.46
837.16	226.56
837.48	226.53
837.79	226.53
838.11	226.52
838.42	226.50
838.74	226.49
839.05	226.47
839.37	226.44
839.68	226.39
840.00	226.39
840.31	226.42
840.63	226.38
840.94	226.35
841.26	226.36
841.57	226.31
841.88	226.33
842.20	226.26
842.51	226.21
842.83	226.19
843.14	226.27
843.46	226.27
843.77	226.19
844.08	226.18
844.40	226.16
844.71	226.12
845.03	226.10
845.34	226.06
845.65	226.02
845.97	226.03
846.28	226.01
846.60	225.99
846.91	225.94
847.22	225.95
847.54	225.94
847.85	225.91
848.16	225.91
848.48	225.89
848.79	225.91
849.10	225.92
849.42	225.93
849.73	225.81
850.04	225.78
850.36	225.74
850.67	225.75
850.98	225.75
851.30	225.76
851.61	225.78
851.92	225.80
852.23	225.88
852.55	225.86
852.86	225.86
853.17	225.86
853.49	225.90
853.80	225.92
854.11	225.93
854.42	225.91
854.74	225.89
855.05	225.88
855.36	225.85
855.67	225.86
855.99	225.84
856.30	225.98
856.61	226.03
856.92	226.00
857.23	225.99
857.55	225.98
857.86	225.98
858.17	225.97
858.48	225.96
858.79	225.92
859.11	225.95
859.42	225.94
859.73	225.96
860.04	225.96
860.35	225.94
860.66	225.93
860.98	225.96
861.29	225.98
861.60	225.97
861.91	225.99
862.22	225.97
862.53	225.98
862.84	225.86
863.16	225.83
863.47	225.86
863.78	225.88
864.09	225.88
864.40	225.88
864.71	225.90
865.02	225.88
865.33	225.88
865.64	225.86
865.95	225.84
866.27	225.88
866.58	225.85
866.89	225.84
867.20	225.85
867.51	225.84
867.82	225.80
868.13	225.82
868.44	225.81
868.75	225.83
869.06	225.82
869.37	225.82
869.68	225.80
869.99	225.78
870.30	225.77
870.61	225.77
870.92	225.78
871.23	225.77
871.54	225.81
871.85	225.77
872.16	225.77
872.47	225.77
872.78	225.69
873.09	225.70
873.40	225.69
873.71	225.66
874.02	225.64
874.33	225.64
874.64	225.63
874.95	225.66
875.26	225.60
875.56	225.59
875.87	225.58
876.18	225.57
876.49	225.66
876.80	225.63
877.11	225.59
877.42	225.57
877.73	225.56
878.04	225.56
878.35	225.56
878.66	225.56
878.96	225.54
879.27	225.57
879.58	225.59
879.89	225.55
880.20	225.58
880.51	225.58
880.82	225.59
881.12	225.56
881.43	225.52
881.74	225.52
882.05	225.51
882.36	225.53
882.67	225.55
882.97	225.48
883.28	225.46
883.59	225.49
883.90	225.49
884.21	225.47
884.51	225.42
884.82	225.44
885.13	225.45
885.44	225.50
885.74	225.50
886.05	225.49
886.36	225.51
886.67	225.50
886.98	225.57
887.28	225.59
887.59	225.60
887.90	225.60
888.20	225.63
888.51	225.65
888.82	225.64
889.13	225.64
889.43	225.70
889.74	225.73
890.05	225.69
890.35	225.70
890.66	225.70
890.97	225.73
891.28	225.70
891.58	225.67
891.89	225.64
892.20	225.62
892.50	225.61
892.81	225.60
893.12	225.60
893.42	225.56
893.73	225.55
894.04	225.55
894.34	225.56
894.65	225.55
894.95	225.55
895.26	225.53
895.57	225.58
895.87	225.48
896.18	225.51
896.48	225.55
896.79	225.52
897.10	225.54
897.40	225.53
897.71	225.54
898.01	225.56
898.32	225.59
898.63	225.58
898.93	225.59
899.24	225.59
899.54	225.58
899.85	225.58
900.15	225.58
900.46	225.63
900.76	225.65
901.07	225.65
901.38	225.62
901.68	225.65
901.99	225.59
902.29	225.61
902.60	225.61
902.90	225.60
903.21	225.61
903.51	225.60
903.82	225.63
904.12	225.65
904.43	225.66
904.73	225.62
905.03	225.64
905.34	225.73
905.64	225.76
905.95	225.77
906.25	225.76
906.56	225.75
906.86	225.72
907.17	225.69
907.47	225.70
907.77	225.70
908.08	225.67
908.38	225.68
908.69	225.67
908.99	225.68
909.30	225.70
909.60	225.70
909.90	225.68
910.21	225.64
910.51	225.60
910.81	225.60
911.12	225.65
911.42	225.64
911.73	225.54
912.03	225.51
912.33	225.50
912.64	225.48
912.94	225.49
913.24	225.44
913.55	225.44
913.85	225.42
914.15	225.44
914.46	225.46
914.76	225.43
915.06	225.40
915.37	225.35
915.67	225.33
915.97	225.31
916.27	225.28
916.58	225.32
916.88	225.33
917.18	225.34
917.49	225.39
917.79	225.36
918.09	225.36
918.39	225.43
918.70	225.43
919.00	225.44
919.30	225.46
919.60	225.49
919.91	225.47
920.21	225.48
920.51	225.47
920.81	225.46
921.12	225.51
921.42	225.54
921.72	225.52
922.02	225.52
922.32	225.53
922.63	225.55
922.93	225.59
923.23	225.57
923.53	225.52
923.83	225.48
924.13	225.50
924.44	225.50
924.74	225.48
925.04	225.50
925.34	225.48
925.64	225.47
925.94	225.45
926.24	225.52
926.55	225.52
926.85	225.54
927.15	225.53
927.45	225.49
927.75	225.48
928.05	225.52
928.35	225.53
928.65	225.54
928.95	225.54
929.26	225.49
929.56	225.53
929.86	225.55
930.16	225.53
930.46	225.53
930.76	225.53
931.06	225.49
931.36	225.44
931.66	225.49
931.96	225.50
932.26	225.51
932.56	225.45
932.86	225.49
933.16	225.47
933.46	225.48
933.76	225.49
934.06	225.52
934.36	225.55
934.66	225.56
934.96	225.56
935.26	225.57
935.56	225.59
935.86	225.56
936.16	225.55
936.46	225.51
936.76	225.51
937.06	225.47
937.36	225.50
937.66	225.54
937.96	225.53
938.26	225.51
938.56	225.49
938.86	225.50
939.16	225.49
939.46	225.51
939.76	225.48
940.06	225.49
940.35	225.48
940.65	225.40
940.95	225.44
941.25	225.40
941.55	225.39
941.85	225.36
942.15	225.38
942.45	225.38
942.75	225.39
943.04	225.36
943.34	225.41
943.64	225.37
943.94	225.32
944.24	225.31
944.54	225.30
944.84	225.31
945.13	225.30
945.43	225.29
945.73	225.29
946.03	225.31
946.33	225.27
946.62	225.23
946.92	225.22
947.22	225.19
947.52	225.22
947.82	225.22
948.11	225.22
948.41	225.18
948.71	225.17
949.01	225.16
949.31	225.18
949.60	225.15
949.90	225.18
950.20	225.21
950.50	225.21
950.79	225.18
951.09	225.20
951.39	225.18
951.69	225.14
951.98	225.12
952.28	225.12
952.58	225.13
952.87	225.14
953.17	225.18
953.47	225.16
953.76	225.16
954.06	225.14
954.36	225.14
954.66	225.13
954.95	225.17
955.25	225.18
955.55	225.18
955.84	225.17
956.14	225.17
956.44	225.17
956.73	225.14
957.03	225.17
957.32	225.18
957.62	225.17
957.92	225.22
958.21	225.22
958.51	225.33
958.81	225.36
959.10	225.36
959.40	225.35
959.69	225.35
959.99	225.35
960.29	225.33
960.58	225.31
960.88	225.39
961.17	225.35
961.47	225.37
961.76	225.32
962.06	225.33
962.36	225.32
962.65	225.31
962.95	225.29
963.24	225.27
963.54	225.27
963.83	225.28
964.13	225.28
964.42	225.26
964.72	225.15
965.01	225.14
965.31	225.16
965.60	225.15
965.90	225.20
966.19	225.18
966.49	225.21
966.78	225.22
967.08	225.17
967.37	225.20
967.67	225.21
967.96	225.30
968.26	225.29
968.55	225.31
968.85	225.31
969.14	225.34
969.43	225.35
969.73	225.32
970.02	225.34
970.32	225.29
970.61	225.31
970.91	225.28
971.20	225.26
971.49	225.23
971.79	225.26
972.08	225.21
972.38	225.22
972.67	225.22
972.96	225.22
973.26	225.18
973.55	225.21
973.85	225.19
974.14	225.12
974.43	225.16
974.73	225.16
975.02	225.19
975.31	225.18
975.61	225.18
975.90	225.18
976.19	225.15
976.49	225.20
976.78	225.20
977.07	225.22
977.37	225.23
977.66	225.24
977.95	225.21
978.24	225.22
978.54	225.24
978.83	225.25
979.12	225.25
979.42	225.27
979.71	225.25
980.00	225.24
980.29	225.26
980.59	225.21
980.88	225.23
981.17	225.17
981.46	225.16
981.76	225.16
982.05	225.18
982.34	225.21
982.63	225.18
982.93	225.20
983.22	225.23
983.51	225.25
983.80	225.28
984.09	225.27
984.39	225.30
984.68	225.28
984.97	225.26
985.26	225.27
985.55	225.27
985.85	225.22
986.14	225.23
986.43	225.22
986.72	225.20
987.01	225.16
987.30	225.17
987.59	225.16
987.89	225.18
988.18	225.18
988.47	225.17
988.76	225.16
989.05	225.13
989.34	225.09
989.63	225.07
989.92	225.03
990.22	225.02
990.51	224.99
990.80	224.95
991.09	224.99
991.38	225.01
991.67	225.00
991.96	224.97
992.25	225.03
992.54	225.00
992.83	225.02
993.12	225.04
993.41	225.07
993.70	225.12
993.99	225.13
994.28	225.11
994.58	225.13
994.87	225.13
995.16	225.12
995.45	225.12
995.74	225.10
996.03	225.14
996.32	225.15
996.61	225.18
996.90	225.22
997.19	225.17
997.48	225.19
997.77	225.21
998.06	225.24
998.34	225.20
998.63	225.23
998.92	225.25
999.21	225.22
999.50	225.21
999.79	225.13
1000.08	225.10
1000.37	225.13
1000.66	225.09
1000.95	225.11
1001.24	225.14
1001.53	225.14
1001.82	225.14
1002.11	225.12
1002.40	225.15
1002.68	225.19
1002.97	225.25
1003.26	225.26
1003.55	225.25
1003.84	225.24
1004.13	225.29
1004.42	225.28
1004.71	225.27
1004.99	225.27
1005.28	225.35
1005.57	225.34
1005.86	225.37
1006.15	225.38
1006.44	225.35
1006.72	225.34
1007.01	225.33
1007.30	225.33
1007.59	225.35
1007.88	225.34
1008.17	225.36
1008.45	225.33
1008.74	225.29
1009.03	225.22
1009.32	225.21
1009.60	225.19
1009.89	225.20
1010.18	225.12
1010.47	225.12
1010.76	225.13
1011.04	225.12
1011.33	225.10
1011.62	225.11
1011.91	225.12
1012.19	225.15
1012.48	225.17
1012.77	225.21
1013.05	225.26
1013.34	225.24
1013.63	225.24
1013.92	225.27
1014.20	225.26
1014.49	225.23
1014.78	225.24
1015.06	225.19
1015.35	225.20
1015.64	225.20
1015.92	225.23
1016.21	225.25
1016.50	225.24
1016.78	225.24
1017.07	225.25
1017.36	225.22
1017.64	225.22
1017.93	225.22
1018.22	225.20
1018.50	225.19
1018.79	225.19
1019.08	225.14
1019.36	225.16
1019.65	225.13
1019.93	225.16
1020.22	225.15
1020.51	225.22
1020.79	225.20
1021.08	225.12
1021.36	225.19
1021.65	225.48
1021.94	225.20
1022.22	225.22
1022.51	225.00
1022.79	225.75
1023.08	225.01
1023.36	226.32
1023.65	225.00
>>>>>End Processed Spectral Data<<<<<
