SpectraSuite Data File
++++++++++++++++++++++++++++++++++++
Date: Fri Feb 01 16:57:15 EST 2013
User: group
Dark Spectrum Present: No
Reference Spectrum Present: No
Number of Sampled Component Spectra: 1
Spectrometers: USB2E7196
Integration Time (usec): 35000 (USB2E7196)
Spectra Averaged: 100 (USB2E7196)
Boxcar Smoothing: 10 (USB2E7196)
Correct for Electrical Dark: No (USB2E7196)
Strobe/Lamp Enabled: No (USB2E7196)
Correct for Detector Non-linearity: No (USB2E7196)
Correct for Stray Light: No (USB2E7196)
Number of Pixels in Processed Spectrum: 2048
>>>>>Begin Processed Spectral Data<<<<<
339.09	0.00
339.48	213.70
339.86	214.67
340.24	216.59
340.63	217.10
341.01	220.67
341.39	220.29
341.78	221.76
342.16	222.47
342.54	223.71
342.93	211.92
343.31	222.64
343.69	223.18
344.07	223.64
344.46	224.05
344.84	224.44
345.22	224.68
345.60	224.94
345.99	225.13
346.37	225.29
346.75	225.37
347.13	225.43
347.52	225.48
347.90	225.54
348.28	225.56
348.66	225.58
349.05	225.55
349.43	225.57
349.81	225.59
350.19	225.64
350.57	225.66
350.96	225.71
351.34	225.76
351.72	225.84
352.10	225.95
352.48	226.00
352.87	226.07
353.25	226.12
353.63	226.18
354.01	226.25
354.39	226.33
354.77	226.44
355.15	226.54
355.54	226.58
355.92	226.64
356.30	226.71
356.68	226.85
357.06	226.92
357.44	226.98
357.82	227.04
358.20	227.10
358.58	227.18
358.97	227.28
359.35	227.40
359.73	227.46
360.11	227.52
360.49	227.60
360.87	227.64
361.25	227.71
361.63	227.78
362.01	227.80
362.39	227.78
362.77	227.81
363.15	227.82
363.53	227.82
363.91	227.85
364.29	227.86
364.67	227.79
365.05	227.84
365.43	227.89
365.81	227.95
366.19	228.01
366.57	228.04
366.95	228.06
367.33	228.03
367.71	228.06
368.09	228.05
368.47	228.04
368.85	228.07
369.23	228.05
369.61	228.01
369.99	228.06
370.37	228.06
370.75	228.08
371.13	228.05
371.51	228.04
371.89	227.98
372.27	227.94
372.65	227.88
373.03	227.81
373.41	227.75
373.78	227.66
374.16	227.56
374.54	227.47
374.92	227.35
375.30	227.27
375.68	227.16
376.06	227.10
376.44	227.04
376.82	226.94
377.19	226.89
377.57	226.81
377.95	226.70
378.33	226.64
378.71	226.52
379.09	226.48
379.47	226.40
379.84	226.33
380.22	226.27
380.60	226.22
380.98	226.15
381.36	226.06
381.73	225.98
382.11	225.97
382.49	225.90
382.87	225.81
383.25	225.74
383.62	225.80
384.00	225.72
384.38	225.64
384.76	225.60
385.13	225.57
385.51	225.54
385.89	225.48
386.27	225.45
386.64	225.43
387.02	225.36
387.40	225.33
387.78	225.31
388.15	225.26
388.53	225.23
388.91	225.21
389.29	225.20
389.66	225.21
390.04	225.11
390.42	225.11
390.79	225.09
391.17	225.10
391.55	224.96
391.92	224.94
392.30	224.96
392.68	224.91
393.05	224.88
393.43	224.86
393.81	224.87
394.18	224.86
394.56	224.80
394.94	224.83
395.31	224.86
395.69	224.89
396.06	224.96
396.44	224.98
396.82	225.00
397.19	225.09
397.57	225.10
397.95	225.21
398.32	225.24
398.70	225.31
399.07	225.38
399.45	225.45
399.82	225.53
400.20	225.55
400.58	225.64
400.95	225.68
401.33	225.77
401.70	225.89
402.08	225.98
402.45	226.09
402.83	226.22
403.20	226.30
403.58	226.38
403.95	226.51
404.33	226.66
404.71	226.79
405.08	226.95
405.46	227.10
405.83	227.19
406.21	227.33
406.58	227.50
406.96	227.66
407.33	227.80
407.70	227.98
408.08	228.27
408.45	228.49
408.83	228.77
409.20	228.94
409.58	229.12
409.95	229.39
410.33	229.64
410.70	229.87
411.08	230.15
411.45	230.45
411.82	230.73
412.20	231.04
412.57	231.43
412.95	231.71
413.32	232.10
413.69	232.54
414.07	232.96
414.44	233.38
414.82	233.84
415.19	234.42
415.56	234.95
415.94	235.46
416.31	236.11
416.68	236.65
417.06	237.38
417.43	238.07
417.81	238.81
418.18	239.59
418.55	240.43
418.93	241.32
419.30	242.22
419.67	243.15
420.04	244.05
420.42	245.04
420.79	246.20
421.16	247.35
421.54	248.52
421.91	249.73
422.28	251.00
422.66	252.32
423.03	253.60
423.40	254.92
423.77	256.35
424.15	257.75
424.52	259.27
424.89	260.90
425.26	262.44
425.64	263.88
426.01	265.47
426.38	267.11
426.75	268.78
427.13	270.47
427.50	272.27
427.87	274.18
428.24	276.03
428.61	277.78
428.99	279.72
429.36	281.79
429.73	283.81
430.10	285.83
430.47	287.87
430.85	289.94
431.22	292.16
431.59	294.47
431.96	296.72
432.33	299.18
432.70	301.52
433.08	304.28
433.45	306.90
433.82	309.46
434.19	312.32
434.56	315.09
434.93	317.73
435.30	320.34
435.68	323.24
436.05	326.05
436.42	328.78
436.79	331.26
437.16	333.94
437.53	336.77
437.90	339.55
438.27	342.25
438.64	345.08
439.01	347.66
439.38	349.91
439.75	352.04
440.13	354.53
440.50	356.85
440.87	358.67
441.24	360.59
441.61	362.73
441.98	364.22
442.35	366.09
442.72	367.94
443.09	369.71
443.46	370.63
443.83	371.21
444.20	371.75
444.57	372.62
444.94	372.97
445.31	373.35
445.68	373.69
446.05	373.78
446.42	373.39
446.79	373.06
447.16	372.64
447.53	372.32
447.90	371.16
448.27	370.07
448.64	368.52
449.01	367.43
449.37	365.54
449.74	363.65
450.11	361.38
450.48	358.94
450.85	356.44
451.22	354.37
451.59	352.38
451.96	350.47
452.33	347.88
452.70	345.52
453.07	342.67
453.43	339.84
453.80	337.13
454.17	334.50
454.54	331.97
454.91	329.24
455.28	326.57
455.65	324.08
456.02	321.59
456.38	319.48
456.75	316.81
457.12	314.52
457.49	312.36
457.86	310.17
458.23	308.33
458.59	306.32
458.96	304.24
459.33	302.39
459.70	300.54
460.07	299.07
460.43	297.34
460.80	295.72
461.17	294.30
461.54	292.79
461.91	291.43
462.27	289.96
462.64	288.76
463.01	287.45
463.38	286.18
463.74	284.84
464.11	283.67
464.48	282.69
464.85	281.62
465.21	280.73
465.58	279.83
465.95	278.72
466.32	277.82
466.68	276.96
467.05	276.06
467.42	275.18
467.78	274.22
468.15	273.34
468.52	272.68
468.88	271.78
469.25	271.00
469.62	270.36
469.98	269.71
470.35	269.05
470.72	268.45
471.08	267.80
471.45	267.28
471.82	266.69
472.18	266.07
472.55	265.62
472.92	265.15
473.28	264.68
473.65	264.24
474.02	263.80
474.38	263.40
474.75	263.07
475.11	262.73
475.48	262.47
475.85	262.26
476.21	262.05
476.58	261.92
476.94	261.81
477.31	261.62
477.67	261.45
478.04	261.34
478.41	261.30
478.77	261.37
479.14	261.30
479.50	261.38
479.87	261.44
480.23	261.55
480.60	261.61
480.96	261.71
481.33	261.97
481.69	262.15
482.06	262.40
482.42	262.60
482.79	262.83
483.15	263.18
483.52	263.60
483.88	263.99
484.25	264.39
484.61	264.81
484.98	265.27
485.34	265.86
485.71	266.45
486.07	267.07
486.44	267.64
486.80	268.37
487.17	269.13
487.53	269.99
487.90	270.86
488.26	271.79
488.62	272.84
488.99	273.76
489.35	274.82
489.72	275.92
490.08	277.17
490.44	278.43
490.81	279.78
491.17	281.12
491.54	282.57
491.90	284.09
492.26	285.75
492.63	287.53
492.99	289.29
493.36	291.21
493.72	293.25
494.08	295.33
494.45	297.54
494.81	299.89
495.17	302.29
495.54	304.85
495.90	307.54
496.26	310.30
496.63	313.29
496.99	316.38
497.35	319.66
497.72	323.05
498.08	326.58
498.44	330.21
498.80	334.06
499.17	338.11
499.53	342.26
499.89	346.60
500.26	351.05
500.62	355.69
500.98	360.61
501.34	365.67
501.71	370.96
502.07	376.36
502.43	381.90
502.79	387.70
503.16	393.74
503.52	399.92
503.88	406.27
504.24	412.82
504.60	419.69
504.97	426.76
505.33	434.01
505.69	441.70
506.05	449.40
506.41	457.25
506.78	465.34
507.14	473.76
507.50	482.42
507.86	491.38
508.22	500.46
508.59	509.63
508.95	519.09
509.31	528.83
509.67	538.91
510.03	549.07
510.39	559.55
510.75	570.19
511.12	581.06
511.48	592.22
511.84	603.58
512.20	614.98
512.56	626.76
512.92	638.79
513.28	650.94
513.64	663.33
514.00	675.90
514.37	688.68
514.73	701.55
515.09	714.42
515.45	727.52
515.81	740.99
516.17	754.77
516.53	768.74
516.89	782.79
517.25	796.78
517.61	811.05
517.97	825.25
518.33	839.55
518.69	854.07
519.05	868.86
519.41	883.85
519.77	899.20
520.13	914.43
520.49	929.56
520.85	944.76
521.21	960.20
521.57	976.16
521.93	991.67
522.29	1007.65
522.65	1023.59
523.01	1039.50
523.37	1055.26
523.73	1071.21
524.09	1086.93
524.45	1102.86
524.81	1119.22
525.17	1135.66
525.53	1152.20
525.89	1168.79
526.25	1185.35
526.61	1201.53
526.97	1217.92
527.33	1234.00
527.68	1250.25
528.04	1266.47
528.40	1282.64
528.76	1299.39
529.12	1315.65
529.48	1332.17
529.84	1347.92
530.20	1364.33
530.56	1381.07
530.91	1398.28
531.27	1414.71
531.63	1430.89
531.99	1447.14
532.35	1462.82
532.71	1478.43
533.07	1494.57
533.42	1510.24
533.78	1526.04
534.14	1541.94
534.50	1556.98
534.86	1572.57
535.21	1587.60
535.57	1603.20
535.93	1618.57
536.29	1633.05
536.65	1647.96
537.00	1662.33
537.36	1677.50
537.72	1691.75
538.08	1705.93
538.44	1719.38
538.79	1732.95
539.15	1746.35
539.51	1759.78
539.87	1773.79
540.22	1787.20
540.58	1800.55
540.94	1813.30
541.29	1825.84
541.65	1838.19
542.01	1851.07
542.37	1863.29
542.72	1875.42
543.08	1887.06
543.44	1899.18
543.79	1910.26
544.15	1920.86
544.51	1932.41
544.87	1943.11
545.22	1953.78
545.58	1963.76
545.94	1973.35
546.29	1982.98
546.65	1992.74
547.01	2001.90
547.36	2010.35
547.72	2018.78
548.07	2026.50
548.43	2034.54
548.79	2042.50
549.14	2050.05
549.50	2057.30
549.86	2064.73
550.21	2071.88
550.57	2078.89
550.92	2085.41
551.28	2092.35
551.64	2099.48
551.99	2105.93
552.35	2112.09
552.70	2118.04
553.06	2123.96
553.41	2130.30
553.77	2136.33
554.13	2142.47
554.48	2148.63
554.84	2154.36
555.19	2159.61
555.55	2164.89
555.90	2169.64
556.26	2174.53
556.61	2179.30
556.97	2183.75
557.32	2187.98
557.68	2192.23
558.03	2196.53
558.39	2200.20
558.74	2204.96
559.10	2208.87
559.45	2212.50
559.81	2216.68
560.16	2220.68
560.52	2224.06
560.87	2227.41
561.23	2230.23
561.58	2233.14
561.94	2235.80
562.29	2238.04
562.64	2240.92
563.00	2243.54
563.35	2247.06
563.71	2250.24
564.06	2253.51
564.42	2256.48
564.77	2259.15
565.12	2261.53
565.48	2263.69
565.83	2265.81
566.19	2267.26
566.54	2268.22
566.89	2269.60
567.25	2270.51
567.60	2271.91
567.96	2273.72
568.31	2274.78
568.66	2276.02
569.02	2276.71
569.37	2277.10
569.72	2278.21
570.08	2278.47
570.43	2278.69
570.78	2278.36
571.14	2277.05
571.49	2275.83
571.84	2275.63
572.20	2274.72
572.55	2273.94
572.90	2272.35
573.26	2271.16
573.61	2269.57
573.96	2268.18
574.31	2265.53
574.67	2262.66
575.02	2259.26
575.37	2256.04
575.72	2252.49
576.08	2249.17
576.43	2246.10
576.78	2242.69
577.13	2239.55
577.49	2236.51
577.84	2233.29
578.19	2229.70
578.54	2226.49
578.90	2222.59
579.25	2217.27
579.60	2212.41
579.95	2207.59
580.30	2202.94
580.66	2197.85
581.01	2193.21
581.36	2188.35
581.71	2184.33
582.06	2180.26
582.42	2176.05
582.77	2171.09
583.12	2166.70
583.47	2162.38
583.82	2157.69
584.17	2152.69
584.53	2147.45
584.88	2142.07
585.23	2136.47
585.58	2131.12
585.93	2125.58
586.28	2120.83
586.63	2115.96
586.98	2111.04
587.34	2106.36
587.69	2101.55
588.04	2096.58
588.39	2090.99
588.74	2084.69
589.09	2078.73
589.44	2071.93
589.79	2065.96
590.14	2060.50
590.49	2054.12
590.84	2047.81
591.19	2041.74
591.54	2035.30
591.89	2028.29
592.25	2021.76
592.60	2014.69
592.95	2007.42
593.30	2000.34
593.65	1992.99
594.00	1986.07
594.35	1979.04
594.70	1971.22
595.05	1964.23
595.40	1956.95
595.75	1949.57
596.10	1943.63
596.45	1937.01
596.80	1931.10
597.15	1924.75
597.50	1917.83
597.85	1911.42
598.19	1904.98
598.54	1898.19
598.89	1891.78
599.24	1885.87
599.59	1879.44
599.94	1873.25
600.29	1866.99
600.64	1860.51
600.99	1853.25
601.34	1846.47
601.69	1839.54
602.04	1832.73
602.39	1825.55
602.74	1819.00
603.08	1812.35
603.43	1805.56
603.78	1798.42
604.13	1791.29
604.48	1783.98
604.83	1777.17
605.18	1770.47
605.53	1762.57
605.87	1754.53
606.22	1747.42
606.57	1739.51
606.92	1732.11
607.27	1725.18
607.62	1718.31
607.96	1711.15
608.31	1704.77
608.66	1697.31
609.01	1689.94
609.36	1682.55
609.70	1674.52
610.05	1666.50
610.40	1658.98
610.75	1650.76
611.10	1643.04
611.44	1634.71
611.79	1626.86
612.14	1618.28
612.49	1609.17
612.83	1600.72
613.18	1592.62
613.53	1584.59
613.88	1576.16
614.22	1567.94
614.57	1559.18
614.92	1551.29
615.27	1543.71
615.61	1535.20
615.96	1527.19
616.31	1519.54
616.65	1512.19
617.00	1504.71
617.35	1497.05
617.70	1488.67
618.04	1480.31
618.39	1472.11
618.74	1464.49
619.08	1456.16
619.43	1448.50
619.78	1441.50
620.12	1434.48
620.47	1427.03
620.82	1418.76
621.16	1411.50
621.51	1403.87
621.85	1396.36
622.20	1387.85
622.55	1379.48
622.89	1371.66
623.24	1364.12
623.59	1356.60
623.93	1349.06
624.28	1341.83
624.62	1334.26
624.97	1327.17
625.32	1320.40
625.66	1313.36
626.01	1306.32
626.35	1298.95
626.70	1291.22
627.04	1283.55
627.39	1275.66
627.73	1268.38
628.08	1261.54
628.43	1254.23
628.77	1246.98
629.12	1239.41
629.46	1232.28
629.81	1224.85
630.15	1217.69
630.50	1210.25
630.84	1202.25
631.19	1194.35
631.53	1186.87
631.88	1179.27
632.22	1171.67
632.57	1164.29
632.91	1156.75
633.26	1149.30
633.60	1141.78
633.95	1134.64
634.29	1127.57
634.64	1121.02
634.98	1113.61
635.32	1106.57
635.67	1099.84
636.01	1093.21
636.36	1086.52
636.70	1080.02
637.05	1073.49
637.39	1066.91
637.73	1060.47
638.08	1054.58
638.42	1048.58
638.77	1042.16
639.11	1035.80
639.45	1029.38
639.80	1022.74
640.14	1016.47
640.49	1009.92
640.83	1003.77
641.17	997.67
641.52	991.32
641.86	984.73
642.20	978.87
642.55	972.43
642.89	966.11
643.23	959.37
643.58	953.64
643.92	947.47
644.26	941.51
644.61	935.51
644.95	929.44
645.29	922.94
645.64	916.27
645.98	909.92
646.32	903.96
646.66	897.96
647.01	892.27
647.35	886.54
647.69	880.72
648.04	875.23
648.38	869.41
648.72	863.55
649.06	857.65
649.41	851.77
649.75	845.83
650.09	839.97
650.43	834.34
650.78	828.14
651.12	822.20
651.46	816.54
651.80	810.93
652.14	805.64
652.49	800.25
652.83	795.11
653.17	789.47
653.51	783.84
653.85	778.52
654.20	772.86
654.54	766.89
654.88	761.09
655.22	755.21
655.56	749.53
655.90	744.07
656.25	738.89
656.59	733.57
656.93	728.57
657.27	723.38
657.61	718.02
657.95	713.01
658.29	707.92
658.64	702.56
658.98	697.26
659.32	691.87
659.66	686.64
660.00	681.36
660.34	676.42
660.68	671.47
661.02	666.43
661.36	661.76
661.70	657.22
662.05	652.98
662.39	648.63
662.73	644.24
663.07	639.94
663.41	635.50
663.75	631.07
664.09	626.50
664.43	622.07
664.77	617.92
665.11	613.67
665.45	609.57
665.79	605.52
666.13	601.38
666.47	597.22
666.81	593.12
667.15	588.98
667.49	585.10
667.83	581.29
668.17	577.38
668.51	573.30
668.85	569.23
669.19	565.40
669.53	561.62
669.87	557.73
670.21	553.99
670.55	550.33
670.89	546.86
671.23	543.43
671.57	539.93
671.91	536.45
672.25	532.91
672.58	529.36
672.92	525.92
673.26	522.79
673.60	519.63
673.94	516.55
674.28	513.65
674.62	510.71
674.96	507.64
675.30	504.75
675.64	501.83
675.97	499.10
676.31	496.17
676.65	493.20
676.99	490.48
677.33	487.56
677.67	484.76
678.01	481.72
678.34	478.76
678.68	475.88
679.02	473.12
679.36	470.38
679.70	467.64
680.04	464.89
680.37	461.98
680.71	459.14
681.05	456.50
681.39	453.77
681.73	451.11
682.06	448.59
682.40	445.99
682.74	443.42
683.08	440.90
683.42	438.30
683.75	435.80
684.09	433.24
684.43	430.79
684.77	428.27
685.10	425.96
685.44	423.66
685.78	421.40
686.12	419.06
686.45	416.78
686.79	414.52
687.13	412.38
687.46	410.24
687.80	408.11
688.14	405.94
688.48	403.93
688.81	401.70
689.15	399.54
689.49	397.41
689.82	395.37
690.16	393.27
690.50	391.29
690.83	389.40
691.17	387.40
691.51	385.53
691.84	383.74
692.18	381.83
692.52	379.88
692.85	377.94
693.19	376.12
693.52	374.26
693.86	372.42
694.20	370.57
694.53	368.80
694.87	366.97
695.21	365.14
695.54	363.30
695.88	361.54
696.21	359.81
696.55	358.15
696.88	356.44
697.22	354.75
697.56	353.19
697.89	351.54
698.23	349.95
698.56	348.34
698.90	346.75
699.23	345.10
699.57	343.52
699.90	341.97
700.24	340.39
700.58	338.88
700.91	337.42
701.25	336.00
701.58	334.58
701.92	333.23
702.25	331.87
702.59	330.50
702.92	329.19
703.26	327.87
703.59	326.57
703.93	325.41
704.26	324.23
704.60	322.90
704.93	321.61
705.26	320.35
705.60	319.17
705.93	318.03
706.27	316.99
706.60	315.95
706.94	314.85
707.27	313.74
707.61	312.64
707.94	311.56
708.27	310.50
708.61	309.44
708.94	308.42
709.28	307.39
709.61	306.44
709.94	305.52
710.28	304.51
710.61	303.53
710.95	302.43
711.28	301.49
711.61	300.53
711.95	299.62
712.28	298.68
712.61	297.72
712.95	296.76
713.28	295.89
713.61	294.99
713.95	294.09
714.28	293.29
714.61	292.45
714.95	291.60
715.28	290.74
715.61	289.88
715.95	289.01
716.28	288.15
716.61	287.28
716.95	286.42
717.28	285.65
717.61	284.84
717.94	284.08
718.28	283.27
718.61	282.57
718.94	281.87
719.27	281.21
719.61	280.49
719.94	279.79
720.27	279.09
720.60	278.38
720.94	277.74
721.27	277.09
721.60	276.48
721.93	275.88
722.27	275.32
722.60	274.72
722.93	274.16
723.26	273.65
723.59	273.07
723.93	272.50
724.26	271.98
724.59	271.43
724.92	270.94
725.25	270.44
725.59	269.87
725.92	269.36
726.25	268.85
726.58	268.38
726.91	267.91
727.24	267.37
727.57	266.90
727.91	266.42
728.24	265.94
728.57	265.47
728.90	265.05
729.23	264.54
729.56	264.16
729.89	263.68
730.22	263.19
730.55	262.75
730.89	262.34
731.22	261.89
731.55	261.51
731.88	261.07
732.21	260.66
732.54	260.24
732.87	259.82
733.20	259.44
733.53	259.07
733.86	258.70
734.19	258.33
734.52	257.98
734.85	257.65
735.18	257.27
735.51	256.93
735.84	256.54
736.17	256.20
736.50	255.78
736.83	255.58
737.16	255.26
737.49	254.97
737.82	254.60
738.15	254.29
738.48	253.94
738.81	253.59
739.14	253.29
739.47	253.00
739.80	252.71
740.13	252.44
740.46	252.07
740.79	251.74
741.12	251.45
741.45	251.16
741.78	250.81
742.11	250.56
742.44	250.23
742.77	249.94
743.10	249.64
743.43	249.33
743.75	248.99
744.08	248.83
744.41	248.53
744.74	248.27
745.07	247.95
745.40	247.74
745.73	247.52
746.06	247.25
746.39	247.00
746.71	246.69
747.04	246.42
747.37	246.21
747.70	245.98
748.03	245.70
748.36	245.47
748.68	245.22
749.01	244.94
749.34	244.71
749.67	244.48
750.00	244.26
750.33	244.09
750.65	243.83
750.98	243.49
751.31	243.28
751.64	243.06
751.97	242.89
752.29	242.62
752.62	242.36
752.95	242.10
753.28	241.85
753.60	241.66
753.93	241.45
754.26	241.24
754.59	241.01
754.91	240.81
755.24	240.56
755.57	240.39
755.90	240.22
756.22	239.98
756.55	239.74
756.88	239.55
757.20	239.29
757.53	239.05
757.86	238.85
758.19	238.68
758.51	238.53
758.84	238.31
759.17	238.17
759.49	238.02
759.82	237.87
760.15	237.73
760.47	237.58
760.80	237.42
761.13	237.26
761.45	237.12
761.78	236.96
762.11	236.88
762.43	236.71
762.76	236.55
763.08	236.45
763.41	236.33
763.74	236.19
764.06	236.08
764.39	235.99
764.71	235.87
765.04	235.74
765.37	235.57
765.69	235.44
766.02	235.27
766.34	235.12
766.67	235.01
767.00	234.89
767.32	234.80
767.65	234.74
767.97	234.58
768.30	234.45
768.62	234.36
768.95	234.21
769.27	234.08
769.60	233.98
769.92	233.85
770.25	233.75
770.57	233.63
770.90	233.52
771.22	233.37
771.55	233.28
771.87	233.19
772.20	233.13
772.52	233.11
772.85	233.17
773.17	233.06
773.50	232.96
773.82	232.88
774.15	232.76
774.47	232.62
774.80	232.56
775.12	232.47
775.45	232.38
775.77	232.33
776.09	232.30
776.42	232.24
776.74	232.21
777.07	232.12
777.39	232.03
777.72	231.96
778.04	231.96
778.36	231.90
778.69	231.87
779.01	231.78
779.33	231.67
779.66	231.51
779.98	231.47
780.31	231.41
780.63	231.38
780.95	231.34
781.28	231.28
781.60	231.23
781.92	231.18
782.25	231.14
782.57	231.07
782.89	230.96
783.22	230.88
783.54	230.83
783.86	230.83
784.19	230.78
784.51	230.80
784.83	230.75
785.16	230.67
785.48	230.59
785.80	230.57
786.12	230.51
786.45	230.45
786.77	230.42
787.09	230.37
787.42	230.27
787.74	230.25
788.06	230.19
788.38	230.14
788.71	230.12
789.03	230.09
789.35	230.04
789.67	230.02
789.99	230.01
790.32	229.95
790.64	229.88
790.96	229.94
791.28	229.83
791.61	229.78
791.93	229.74
792.25	229.69
792.57	229.69
792.89	229.63
793.21	229.58
793.54	229.55
793.86	229.50
794.18	229.49
794.50	229.40
794.82	229.34
795.14	229.32
795.47	229.28
795.79	229.21
796.11	229.16
796.43	229.11
796.75	229.08
797.07	229.04
797.39	229.01
797.71	228.90
798.04	228.87
798.36	228.83
798.68	228.81
799.00	228.78
799.32	228.70
799.64	228.68
799.96	228.65
800.28	228.60
800.60	228.56
800.92	228.49
801.24	228.47
801.56	228.48
801.89	228.43
802.21	228.40
802.53	228.36
802.85	228.36
803.17	228.38
803.49	228.31
803.81	228.28
804.13	228.24
804.45	228.18
804.77	228.16
805.09	228.10
805.41	228.06
805.73	228.01
806.05	227.97
806.37	227.95
806.69	227.90
807.01	227.87
807.33	227.83
807.65	227.82
807.97	227.83
808.28	227.78
808.60	227.75
808.92	227.69
809.24	227.71
809.56	227.68
809.88	227.61
810.20	227.60
810.52	227.60
810.84	227.55
811.16	227.53
811.48	227.50
811.80	227.51
812.12	227.45
812.43	227.46
812.75	227.41
813.07	227.36
813.39	227.36
813.71	227.31
814.03	227.29
814.35	227.23
814.67	227.14
814.98	227.10
815.30	227.07
815.62	227.07
815.94	226.98
816.26	226.97
816.58	226.95
816.89	226.94
817.21	226.90
817.53	226.89
817.85	226.87
818.17	226.84
818.48	226.82
818.80	226.83
819.12	226.80
819.44	226.79
819.76	226.77
820.07	226.75
820.39	226.75
820.71	226.76
821.03	226.78
821.34	226.79
821.66	226.80
821.98	226.81
822.30	226.78
822.61	226.83
822.93	226.77
823.25	226.69
823.57	226.65
823.88	226.63
824.20	226.64
824.52	226.66
824.83	226.64
825.15	226.62
825.47	226.60
825.79	226.58
826.10	226.59
826.42	226.60
826.74	226.59
827.05	226.58
827.37	226.56
827.69	226.51
828.00	226.50
828.32	226.52
828.64	226.50
828.95	226.55
829.27	226.54
829.58	226.57
829.90	226.61
830.22	226.64
830.53	226.62
830.85	226.57
831.17	226.52
831.48	226.55
831.80	226.54
832.11	226.54
832.43	226.54
832.75	226.51
833.06	226.55
833.38	226.51
833.69	226.52
834.01	226.51
834.32	226.53
834.64	226.53
834.96	226.49
835.27	226.48
835.59	226.44
835.90	226.40
836.22	226.38
836.53	226.35
836.85	226.31
837.16	226.41
837.48	226.42
837.79	226.43
838.11	226.40
838.42	226.40
838.74	226.39
839.05	226.39
839.37	226.38
839.68	226.31
840.00	226.32
840.31	226.29
840.63	226.30
840.94	226.30
841.26	226.30
841.57	226.27
841.88	226.25
842.20	226.22
842.51	226.22
842.83	226.24
843.14	226.33
843.46	226.33
843.77	226.23
844.08	226.24
844.40	226.22
844.71	226.21
845.03	226.18
845.34	226.19
845.65	226.15
845.97	226.13
846.28	226.15
846.60	226.14
846.91	226.14
847.22	226.11
847.54	226.11
847.85	226.10
848.16	226.11
848.48	226.08
848.79	226.12
849.10	226.15
849.42	226.15
849.73	226.02
850.04	226.02
850.36	225.99
850.67	226.00
850.98	226.01
851.30	226.01
851.61	226.00
851.92	225.98
852.23	226.00
852.55	226.04
852.86	226.01
853.17	226.02
853.49	226.01
853.80	226.02
854.11	226.03
854.42	226.05
854.74	226.03
855.05	226.05
855.36	225.99
855.67	225.95
855.99	225.93
856.30	226.05
856.61	226.06
856.92	226.08
857.23	226.08
857.55	226.06
857.86	226.06
858.17	226.11
858.48	226.08
858.79	226.04
859.11	226.05
859.42	226.06
859.73	226.04
860.04	226.05
860.35	226.03
860.66	226.00
860.98	225.98
861.29	226.02
861.60	226.01
861.91	226.03
862.22	226.03
862.53	226.01
862.84	225.91
863.16	225.93
863.47	225.90
863.78	225.86
864.09	225.86
864.40	225.87
864.71	225.84
865.02	225.90
865.33	225.90
865.64	225.87
865.95	225.84
866.27	225.90
866.58	225.89
866.89	225.89
867.20	225.84
867.51	225.83
867.82	225.79
868.13	225.83
868.44	225.80
868.75	225.80
869.06	225.79
869.37	225.77
869.68	225.71
869.99	225.73
870.30	225.74
870.61	225.75
870.92	225.73
871.23	225.73
871.54	225.75
871.85	225.77
872.16	225.81
872.47	225.82
872.78	225.76
873.09	225.76
873.40	225.76
873.71	225.80
874.02	225.82
874.33	225.86
874.64	225.82
874.95	225.82
875.26	225.82
875.56	225.83
875.87	225.84
876.18	225.86
876.49	225.95
876.80	225.93
877.11	225.90
877.42	225.89
877.73	225.87
878.04	225.80
878.35	225.77
878.66	225.73
878.96	225.71
879.27	225.71
879.58	225.69
879.89	225.69
880.20	225.70
880.51	225.67
880.82	225.62
881.12	225.61
881.43	225.60
881.74	225.57
882.05	225.53
882.36	225.54
882.67	225.52
882.97	225.39
883.28	225.38
883.59	225.40
883.90	225.41
884.21	225.43
884.51	225.41
884.82	225.39
885.13	225.41
885.44	225.38
885.74	225.38
886.05	225.36
886.36	225.36
886.67	225.32
886.98	225.37
887.28	225.40
887.59	225.41
887.90	225.42
888.20	225.44
888.51	225.48
888.82	225.50
889.13	225.53
889.43	225.60
889.74	225.60
890.05	225.57
890.35	225.56
890.66	225.54
890.97	225.55
891.28	225.56
891.58	225.54
891.89	225.56
892.20	225.56
892.50	225.56
892.81	225.54
893.12	225.57
893.42	225.52
893.73	225.53
894.04	225.52
894.34	225.53
894.65	225.50
894.95	225.47
895.26	225.43
895.57	225.48
895.87	225.39
896.18	225.43
896.48	225.45
896.79	225.42
897.10	225.44
897.40	225.43
897.71	225.44
898.01	225.44
898.32	225.47
898.63	225.48
898.93	225.50
899.24	225.49
899.54	225.50
899.85	225.50
900.15	225.50
900.46	225.49
900.76	225.53
901.07	225.55
901.38	225.55
901.68	225.57
901.99	225.53
902.29	225.59
902.60	225.57
902.90	225.58
903.21	225.60
903.51	225.60
903.82	225.63
904.12	225.67
904.43	225.66
904.73	225.66
905.03	225.66
905.34	225.75
905.64	225.76
905.95	225.75
906.25	225.76
906.56	225.76
906.86	225.78
907.17	225.79
907.47	225.80
907.77	225.83
908.08	225.84
908.38	225.83
908.69	225.82
908.99	225.83
909.30	225.84
909.60	225.81
909.90	225.80
910.21	225.77
910.51	225.72
910.81	225.74
911.12	225.76
911.42	225.77
911.73	225.63
912.03	225.67
912.33	225.69
912.64	225.68
912.94	225.65
913.24	225.62
913.55	225.56
913.85	225.54
914.15	225.56
914.46	225.52
914.76	225.51
915.06	225.49
915.37	225.47
915.67	225.44
915.97	225.45
916.27	225.45
916.58	225.48
916.88	225.47
917.18	225.44
917.49	225.46
917.79	225.45
918.09	225.46
918.39	225.44
918.70	225.44
919.00	225.40
919.30	225.46
919.60	225.47
919.91	225.48
920.21	225.48
920.51	225.41
920.81	225.46
921.12	225.47
921.42	225.47
921.72	225.47
922.02	225.46
922.32	225.46
922.63	225.46
922.93	225.48
923.23	225.47
923.53	225.47
923.83	225.40
924.13	225.41
924.44	225.42
924.74	225.44
925.04	225.44
925.34	225.48
925.64	225.44
925.94	225.43
926.24	225.49
926.55	225.48
926.85	225.52
927.15	225.48
927.45	225.44
927.75	225.40
928.05	225.43
928.35	225.46
928.65	225.48
928.95	225.51
929.26	225.45
929.56	225.49
929.86	225.50
930.16	225.51
930.46	225.49
930.76	225.52
931.06	225.47
931.36	225.44
931.66	225.44
931.96	225.45
932.26	225.46
932.56	225.38
932.86	225.36
933.16	225.37
933.46	225.37
933.76	225.38
934.06	225.41
934.36	225.41
934.66	225.37
934.96	225.37
935.26	225.34
935.56	225.37
935.86	225.35
936.16	225.34
936.46	225.33
936.76	225.33
937.06	225.29
937.36	225.30
937.66	225.32
937.96	225.31
938.26	225.26
938.56	225.23
938.86	225.31
939.16	225.36
939.46	225.37
939.76	225.40
940.06	225.42
940.35	225.41
940.65	225.37
940.95	225.41
941.25	225.41
941.55	225.41
941.85	225.39
942.15	225.40
942.45	225.45
942.75	225.45
943.04	225.43
943.34	225.49
943.64	225.52
943.94	225.50
944.24	225.51
944.54	225.55
944.84	225.56
945.13	225.52
945.43	225.51
945.73	225.54
946.03	225.52
946.33	225.51
946.62	225.54
946.92	225.58
947.22	225.57
947.52	225.56
947.82	225.56
948.11	225.58
948.41	225.57
948.71	225.54
949.01	225.59
949.31	225.62
949.60	225.56
949.90	225.56
950.20	225.57
950.50	225.57
950.79	225.55
951.09	225.58
951.39	225.60
951.69	225.59
951.98	225.58
952.28	225.62
952.58	225.61
952.87	225.59
953.17	225.56
953.47	225.55
953.76	225.57
954.06	225.60
954.36	225.57
954.66	225.57
954.95	225.57
955.25	225.56
955.55	225.56
955.84	225.55
956.14	225.53
956.44	225.51
956.73	225.46
957.03	225.45
957.32	225.43
957.62	225.41
957.92	225.42
958.21	225.40
958.51	225.47
958.81	225.49
959.10	225.46
959.40	225.49
959.69	225.50
959.99	225.48
960.29	225.43
960.58	225.40
960.88	225.42
961.17	225.40
961.47	225.38
961.76	225.33
962.06	225.33
962.36	225.32
962.65	225.31
962.95	225.35
963.24	225.34
963.54	225.32
963.83	225.29
964.13	225.26
964.42	225.22
964.72	225.12
965.01	225.10
965.31	225.11
965.60	225.09
965.90	225.14
966.19	225.12
966.49	225.14
966.78	225.17
967.08	225.13
967.37	225.14
967.67	225.12
967.96	225.16
968.26	225.18
968.55	225.19
968.85	225.21
969.14	225.20
969.43	225.22
969.73	225.21
970.02	225.21
970.32	225.21
970.61	225.20
970.91	225.19
971.20	225.16
971.49	225.16
971.79	225.15
972.08	225.10
972.38	225.10
972.67	225.09
972.96	225.08
973.26	225.07
973.55	225.10
973.85	225.10
974.14	225.06
974.43	225.06
974.73	225.03
975.02	225.01
975.31	225.04
975.61	225.05
975.90	225.06
976.19	225.08
976.49	225.10
976.78	225.08
977.07	225.07
977.37	225.13
977.66	225.11
977.95	225.10
978.24	225.12
978.54	225.15
978.83	225.16
979.12	225.17
979.42	225.22
979.71	225.21
980.00	225.20
980.29	225.24
980.59	225.23
980.88	225.27
981.17	225.31
981.46	225.29
981.76	225.30
982.05	225.34
982.34	225.35
982.63	225.33
982.93	225.38
983.22	225.44
983.51	225.43
983.80	225.47
984.09	225.50
984.39	225.49
984.68	225.48
984.97	225.47
985.26	225.47
985.55	225.46
985.85	225.45
986.14	225.50
986.43	225.49
986.72	225.46
987.01	225.44
987.30	225.41
987.59	225.44
987.89	225.42
988.18	225.36
988.47	225.35
988.76	225.36
989.05	225.35
989.34	225.30
989.63	225.35
989.92	225.33
990.22	225.29
990.51	225.29
990.80	225.28
991.09	225.28
991.38	225.28
991.67	225.26
991.96	225.23
992.25	225.19
992.54	225.18
992.83	225.18
993.12	225.14
993.41	225.14
993.70	225.12
993.99	225.11
994.28	225.12
994.58	225.13
994.87	225.12
995.16	225.08
995.45	225.06
995.74	224.98
996.03	224.98
996.32	225.01
996.61	225.03
996.90	225.00
997.19	225.01
997.48	225.01
997.77	224.99
998.06	224.99
998.34	225.01
998.63	224.98
998.92	224.97
999.21	224.98
999.50	224.96
999.79	224.93
1000.08	224.94
1000.37	224.94
1000.66	224.91
1000.95	224.95
1001.24	224.95
1001.53	224.96
1001.82	224.96
1002.11	224.94
1002.40	224.93
1002.68	224.92
1002.97	225.00
1003.26	224.98
1003.55	224.95
1003.84	224.96
1004.13	225.01
1004.42	225.02
1004.71	225.06
1004.99	225.08
1005.28	225.13
1005.57	225.10
1005.86	225.08
1006.15	225.08
1006.44	225.07
1006.72	225.08
1007.01	225.04
1007.30	225.06
1007.59	225.07
1007.88	225.07
1008.17	225.06
1008.45	225.06
1008.74	225.07
1009.03	224.99
1009.32	225.01
1009.60	225.03
1009.89	225.03
1010.18	225.00
1010.47	224.98
1010.76	224.97
1011.04	224.97
1011.33	224.99
1011.62	225.04
1011.91	225.10
1012.19	225.11
1012.48	225.10
1012.77	225.17
1013.05	225.25
1013.34	225.26
1013.63	225.26
1013.92	225.28
1014.20	225.30
1014.49	225.32
1014.78	225.32
1015.06	225.31
1015.35	225.32
1015.64	225.34
1015.92	225.40
1016.21	225.38
1016.50	225.39
1016.78	225.43
1017.07	225.49
1017.36	225.48
1017.64	225.50
1017.93	225.53
1018.22	225.54
1018.50	225.57
1018.79	225.55
1019.08	225.50
1019.36	225.53
1019.65	225.54
1019.93	225.59
1020.22	225.60
1020.51	225.65
1020.79	225.62
1021.08	225.54
1021.36	225.42
1021.65	225.83
1021.94	225.72
1022.22	225.91
1022.51	225.29
1022.79	226.16
1023.08	225.45
1023.36	226.59
1023.65	224.89
>>>>>End Processed Spectral Data<<<<<
