SpectraSuite Data File
++++++++++++++++++++++++++++++++++++
Date: Wed Nov 07 18:30:56 EST 2012
User: group
Dark Spectrum Present: No
Reference Spectrum Present: No
Number of Sampled Component Spectra: 1
Spectrometers: USB2E7196
Integration Time (usec): 1000000 (USB2E7196)
Spectra Averaged: 1 (USB2E7196)
Boxcar Smoothing: 10 (USB2E7196)
Correct for Electrical Dark: No (USB2E7196)
Strobe/Lamp Enabled: No (USB2E7196)
Correct for Detector Non-linearity: No (USB2E7196)
Correct for Stray Light: No (USB2E7196)
Number of Pixels in Processed Spectrum: 2048
>>>>>Begin Processed Spectral Data<<<<<
339.09	0.00
339.48	221.00
339.86	226.00
340.24	221.00
340.63	227.00
341.01	270.00
341.39	229.00
341.78	240.00
342.16	245.00
342.54	232.00
342.93	225.67
343.31	237.10
343.69	237.57
344.07	238.05
344.46	239.05
344.84	239.43
345.22	237.95
345.60	238.19
345.99	238.14
346.37	237.76
346.75	237.95
347.13	238.14
347.52	238.33
347.90	239.29
348.28	239.24
348.66	239.81
349.05	238.71
349.43	238.81
349.81	239.00
350.19	238.86
350.57	239.29
350.96	239.57
351.34	239.33
351.72	239.86
352.10	239.95
352.48	239.62
352.87	239.62
353.25	239.62
353.63	239.76
354.01	239.48
354.39	239.67
354.77	239.43
355.15	239.67
355.54	239.24
355.92	238.43
356.30	238.71
356.68	240.29
357.06	240.90
357.44	240.43
357.82	240.38
358.20	240.76
358.58	240.57
358.97	240.43
359.35	241.14
359.73	241.24
360.11	240.90
360.49	240.95
360.87	240.86
361.25	241.00
361.63	241.48
362.01	241.67
362.39	241.43
362.77	241.67
363.15	241.67
363.53	241.67
363.91	242.19
364.29	242.00
364.67	239.33
365.05	238.90
365.43	239.00
365.81	239.14
366.19	240.33
366.57	240.86
366.95	240.57
367.33	239.81
367.71	239.81
368.09	240.52
368.47	240.33
368.85	240.29
369.23	240.76
369.61	239.86
369.99	240.38
370.37	240.71
370.75	242.10
371.13	241.81
371.51	241.71
371.89	241.48
372.27	241.62
372.65	242.10
373.03	242.57
373.41	242.67
373.78	242.57
374.16	240.81
374.54	240.24
374.92	240.24
375.30	240.38
375.68	240.24
376.06	240.29
376.44	240.38
376.82	240.52
377.19	240.48
377.57	240.57
377.95	239.90
378.33	239.67
378.71	238.19
379.09	238.33
379.47	238.57
379.84	238.62
380.22	238.29
380.60	237.76
380.98	237.14
381.36	236.95
381.73	236.67
382.11	237.33
382.49	237.52
382.87	237.10
383.25	237.24
383.62	240.00
384.00	239.57
384.38	239.76
384.76	240.62
385.13	241.33
385.51	241.71
385.89	241.62
386.27	241.81
386.64	242.05
387.02	241.86
387.40	241.86
387.78	242.00
388.15	242.05
388.53	242.00
388.91	242.38
389.29	242.14
389.66	242.62
390.04	242.38
390.42	242.43
390.79	242.57
391.17	242.57
391.55	239.71
391.92	239.71
392.30	239.90
392.68	239.24
393.05	239.05
393.43	238.95
393.81	239.10
394.18	238.48
394.56	238.52
394.94	239.24
395.31	238.76
395.69	239.43
396.06	240.05
396.44	240.10
396.82	239.86
397.19	241.57
397.57	241.62
397.95	241.95
398.32	241.43
398.70	242.14
399.07	242.71
399.45	242.67
399.82	242.81
400.20	242.81
400.58	242.86
400.95	242.19
401.33	243.10
401.70	245.10
402.08	245.67
402.45	245.86
402.83	246.48
403.20	247.19
403.58	247.05
403.95	247.67
404.33	248.62
404.71	249.29
405.08	250.52
405.46	250.67
405.83	251.24
406.21	252.19
406.58	252.52
406.96	252.48
407.33	253.19
407.70	253.76
408.08	256.05
408.45	257.33
408.83	258.62
409.20	258.71
409.58	258.14
409.95	259.62
410.33	260.62
410.70	261.00
411.08	262.05
411.45	263.33
411.82	263.76
412.20	265.29
412.57	267.90
412.95	267.19
413.32	268.86
413.69	270.24
414.07	272.24
414.44	274.19
414.82	276.38
415.19	279.05
415.56	281.67
415.94	282.62
416.31	285.05
416.68	287.52
417.06	291.19
417.43	294.95
417.81	298.14
418.18	301.86
418.55	305.29
418.93	309.43
419.30	313.62
419.67	318.81
420.04	322.57
420.42	326.48
420.79	334.10
421.16	339.76
421.54	347.10
421.91	353.05
422.28	359.14
422.66	366.10
423.03	374.33
423.40	380.86
423.77	388.33
424.15	395.71
424.52	403.57
424.89	411.95
425.26	419.33
425.64	427.05
426.01	435.29
426.38	444.14
426.75	453.86
427.13	463.10
427.50	472.19
427.87	482.38
428.24	492.05
428.61	500.05
428.99	511.48
429.36	521.00
429.73	532.57
430.10	545.33
430.47	557.86
430.85	569.24
431.22	583.52
431.59	600.38
431.96	615.00
432.33	630.33
432.70	645.29
433.08	662.67
433.45	679.00
433.82	695.48
434.19	713.33
434.56	728.90
434.93	744.38
435.30	759.76
435.68	777.52
436.05	795.05
436.42	812.10
436.79	826.81
437.16	844.00
437.53	860.57
437.90	876.19
438.27	891.86
438.64	907.14
439.01	921.43
439.38	931.43
439.75	943.10
440.13	957.14
440.50	969.81
440.87	980.33
441.24	990.62
441.61	1002.19
441.98	1010.48
442.35	1021.43
442.72	1032.67
443.09	1044.81
443.46	1049.90
443.83	1053.33
444.20	1056.81
444.57	1060.76
444.94	1062.00
445.31	1062.76
445.68	1067.62
446.05	1067.24
446.42	1064.67
446.79	1062.95
447.16	1060.48
447.53	1058.14
447.90	1050.95
448.27	1042.57
448.64	1032.71
449.01	1026.10
449.37	1014.00
449.74	1001.81
450.11	991.00
450.48	975.52
450.85	958.90
451.22	945.81
451.59	933.52
451.96	920.19
452.33	905.62
452.70	891.33
453.07	875.71
453.43	855.67
453.80	839.90
454.17	823.86
454.54	807.62
454.91	791.57
455.28	775.62
455.65	760.71
456.02	751.76
456.38	738.86
456.75	723.57
457.12	711.05
457.49	699.57
457.86	684.90
458.23	676.10
458.59	664.90
458.96	654.33
459.33	643.48
459.70	634.43
460.07	626.14
460.43	616.90
460.80	608.81
461.17	601.29
461.54	593.38
461.91	586.81
462.27	579.19
462.64	572.29
463.01	565.48
463.38	559.81
463.74	548.57
464.11	542.76
464.48	537.33
464.85	532.33
465.21	528.00
465.58	523.67
465.95	517.10
466.32	512.57
466.68	508.05
467.05	504.14
467.42	499.33
467.78	494.81
468.15	490.57
468.52	487.19
468.88	482.33
469.25	478.10
469.62	475.24
469.98	472.33
470.35	469.76
470.72	467.05
471.08	462.76
471.45	460.52
471.82	458.67
472.18	455.67
472.55	453.14
472.92	450.19
473.28	447.29
473.65	444.57
474.02	442.52
474.38	440.24
474.75	438.48
475.11	436.71
475.48	435.48
475.85	434.67
476.21	432.90
476.58	432.24
476.94	431.14
477.31	430.38
477.67	429.10
478.04	428.05
478.41	427.48
478.77	429.86
479.14	429.48
479.50	429.10
479.87	429.52
480.23	429.90
480.60	430.76
480.96	431.67
481.33	434.05
481.69	435.86
482.06	437.71
482.42	439.86
482.79	441.86
483.15	443.81
483.52	445.81
483.88	448.10
484.25	450.52
484.61	453.24
484.98	455.24
485.34	458.95
485.71	462.00
486.07	464.57
486.44	464.71
486.80	467.14
487.17	469.43
487.53	472.81
487.90	475.52
488.26	478.43
488.62	481.67
488.99	483.33
489.35	485.00
489.72	486.71
490.08	488.14
490.44	489.67
490.81	491.62
491.17	493.38
491.54	495.24
491.90	497.19
492.26	499.00
492.63	500.95
492.99	502.05
493.36	503.90
493.72	506.62
494.08	508.48
494.45	511.10
494.81	513.57
495.17	515.24
495.54	518.38
495.90	520.14
496.26	521.95
496.63	524.57
496.99	527.48
497.35	531.10
497.72	533.90
498.08	536.90
498.44	540.48
498.80	544.19
499.17	548.00
499.53	551.00
499.89	554.52
500.26	558.19
500.62	562.14
500.98	566.57
501.34	569.90
501.71	574.71
502.07	579.10
502.43	583.29
502.79	587.29
503.16	590.48
503.52	594.52
503.88	598.86
504.24	603.19
504.60	607.76
504.97	612.43
505.33	617.33
505.69	623.19
506.05	627.00
506.41	631.67
506.78	636.62
507.14	642.05
507.50	647.33
507.86	652.29
508.22	657.90
508.59	662.62
508.95	667.81
509.31	673.52
509.67	678.14
510.03	683.48
510.39	688.71
510.75	693.90
511.12	699.14
511.48	704.33
511.84	708.90
512.20	713.81
512.56	718.52
512.92	723.71
513.28	727.86
513.64	732.62
514.00	736.90
514.37	741.71
514.73	746.24
515.09	751.24
515.45	755.57
515.81	758.38
516.17	761.95
516.53	765.76
516.89	768.71
517.25	772.38
517.61	775.95
517.97	779.71
518.33	783.29
518.69	787.48
519.05	791.10
519.41	795.05
519.77	799.86
520.13	803.14
520.49	805.71
520.85	808.86
521.21	813.67
521.57	817.38
521.93	819.48
522.29	821.76
522.65	823.57
523.01	825.81
523.37	829.10
523.73	831.76
524.09	834.19
524.45	835.90
524.81	837.43
525.17	839.67
525.53	842.05
525.89	843.43
526.25	845.24
526.61	846.52
526.97	848.00
527.33	848.24
527.68	851.29
528.04	852.81
528.40	854.05
528.76	854.00
529.12	855.24
529.48	856.33
529.84	857.24
530.20	858.67
530.56	860.19
530.91	861.43
531.27	862.48
531.63	864.24
531.99	865.33
532.35	867.14
532.71	867.81
533.07	868.52
533.42	872.76
533.78	874.10
534.14	875.95
534.50	878.14
534.86	881.33
535.21	882.71
535.57	885.90
535.93	889.24
536.29	895.05
536.65	899.76
537.00	905.43
537.36	913.10
537.72	922.52
538.08	933.10
538.44	944.05
538.79	956.00
539.15	967.29
539.51	979.86
539.87	991.62
540.22	1004.67
540.58	1019.33
540.94	1031.81
541.29	1046.14
541.65	1058.86
542.01	1071.81
542.37	1082.48
542.72	1090.05
543.08	1096.67
543.44	1101.33
543.79	1103.52
544.15	1106.67
544.51	1108.38
544.87	1107.38
545.22	1102.86
545.58	1097.52
545.94	1090.33
546.29	1082.33
546.65	1073.14
547.01	1062.81
547.36	1054.00
547.72	1043.10
548.07	1031.00
548.43	1017.57
548.79	1003.24
549.14	990.14
549.50	976.71
549.86	964.05
550.21	954.33
550.57	945.57
550.92	937.71
551.28	930.62
551.64	922.00
551.99	914.76
552.35	907.14
552.70	900.19
553.06	893.95
553.41	888.48
553.77	884.52
554.13	880.76
554.48	877.76
554.84	872.95
555.19	868.67
555.55	865.81
555.90	861.86
556.26	858.19
556.61	854.86
556.97	851.19
557.32	847.76
557.68	844.67
558.03	841.76
558.39	838.76
558.74	835.33
559.10	832.48
559.45	829.43
559.81	827.52
560.16	826.14
560.52	824.19
560.87	822.52
561.23	819.62
561.58	818.86
561.94	815.86
562.29	813.43
562.64	811.67
563.00	808.43
563.35	806.62
563.71	805.05
564.06	803.57
564.42	801.90
564.77	800.62
565.12	799.14
565.48	800.10
565.83	799.52
566.19	797.86
566.54	797.29
566.89	796.14
567.25	795.86
567.60	796.14
567.96	797.10
568.31	797.43
568.66	797.43
569.02	794.95
569.37	794.19
569.72	792.81
570.08	791.90
570.43	790.81
570.78	788.90
571.14	788.33
571.49	787.24
571.84	786.81
572.20	785.95
572.55	785.24
572.90	781.90
573.26	780.62
573.61	779.86
573.96	779.29
574.31	779.29
574.67	778.19
575.02	776.14
575.37	774.33
575.72	772.67
576.08	771.38
576.43	769.95
576.78	768.90
577.13	769.33
577.49	768.38
577.84	767.05
578.19	767.67
578.54	766.86
578.90	766.95
579.25	766.52
579.60	766.52
579.95	765.76
580.30	765.24
580.66	764.57
581.01	763.52
581.36	761.52
581.71	760.43
582.06	760.62
582.42	760.00
582.77	758.52
583.12	757.62
583.47	756.24
583.82	755.90
584.17	755.38
584.53	754.76
584.88	754.24
585.23	754.24
585.58	752.00
585.93	750.05
586.28	747.90
586.63	746.52
586.98	743.43
587.34	741.71
587.69	739.05
588.04	736.43
588.39	734.71
588.74	732.14
589.09	729.38
589.44	725.19
589.79	722.05
590.14	718.19
590.49	713.14
590.84	709.24
591.19	705.05
591.54	701.14
591.89	695.81
592.25	693.62
592.60	687.76
592.95	684.38
593.30	680.90
593.65	677.00
594.00	671.71
594.35	674.33
594.70	669.57
595.05	665.86
595.40	662.29
595.75	658.67
596.10	655.33
596.45	651.33
596.80	647.95
597.15	644.24
597.50	640.43
597.85	639.57
598.19	636.00
598.54	632.67
598.89	629.90
599.24	627.86
599.59	623.19
599.94	621.24
600.29	618.29
600.64	615.67
600.99	614.05
601.34	612.67
601.69	604.43
602.04	601.62
602.39	599.29
602.74	597.57
603.08	594.57
603.43	594.10
603.78	592.00
604.13	590.00
604.48	588.33
604.83	588.67
605.18	587.43
605.53	589.38
605.87	592.86
606.22	598.38
606.57	606.29
606.92	614.48
607.27	623.81
607.62	633.62
607.96	643.19
608.31	650.57
608.66	657.38
609.01	663.81
609.36	670.62
609.70	676.76
610.05	681.76
610.40	688.19
610.75	691.62
611.10	695.90
611.44	698.90
611.79	701.00
612.14	701.24
612.49	700.24
612.83	697.76
613.18	693.19
613.53	685.29
613.88	675.48
614.22	664.24
614.57	652.62
614.92	640.81
615.27	629.29
615.61	618.24
615.96	608.19
616.31	598.33
616.65	590.38
617.00	581.57
617.35	573.57
617.70	564.43
618.04	557.10
618.39	549.81
618.74	544.38
619.08	539.29
619.43	534.71
619.78	530.33
620.12	526.43
620.47	523.43
620.82	520.62
621.16	516.86
621.51	515.76
621.85	512.95
622.20	509.71
622.55	506.29
622.89	504.00
623.24	501.71
623.59	499.29
623.93	496.43
624.28	494.29
624.62	494.33
624.97	494.00
625.32	491.48
625.66	490.00
626.01	487.29
626.35	485.86
626.70	483.62
627.04	482.62
627.39	480.81
627.73	479.43
628.08	477.29
628.43	475.48
628.77	471.90
629.12	469.52
629.46	468.19
629.81	466.10
630.15	463.76
630.50	461.19
630.84	459.29
631.19	457.00
631.53	454.57
631.88	449.00
632.22	444.71
632.57	443.00
632.91	440.14
633.26	438.29
633.60	435.29
633.95	432.14
634.29	428.52
634.64	425.86
634.98	421.95
635.32	419.62
635.67	417.48
636.01	415.62
636.36	413.43
636.70	411.76
637.05	409.95
637.39	407.52
637.73	405.86
638.08	404.57
638.42	402.38
638.77	400.86
639.11	399.29
639.45	397.43
639.80	394.81
640.14	393.19
640.49	390.62
640.83	388.67
641.17	387.71
641.52	386.19
641.86	385.14
642.20	385.29
642.55	383.86
642.89	382.76
643.23	381.81
643.58	381.57
643.92	379.57
644.26	378.43
644.61	378.52
644.95	377.76
645.29	375.67
645.64	376.10
645.98	374.76
646.32	375.19
646.66	374.38
647.01	373.86
647.35	373.24
647.69	373.19
648.04	372.71
648.38	371.81
648.72	371.38
649.06	369.43
649.41	367.48
649.75	366.38
650.09	365.81
650.43	364.71
650.78	362.95
651.12	362.00
651.46	360.62
651.80	359.00
652.14	357.10
652.49	357.05
652.83	354.48
653.17	353.29
653.51	351.10
653.85	350.24
654.20	349.10
654.54	347.67
654.88	345.90
655.22	344.19
655.56	342.48
655.90	341.43
656.25	341.05
656.59	339.95
656.93	339.52
657.27	338.52
657.61	337.57
657.95	337.33
658.29	336.38
658.64	336.29
658.98	335.48
659.32	335.10
659.66	334.00
660.00	334.00
660.34	333.57
660.68	333.19
661.02	332.90
661.36	332.05
661.70	331.57
662.05	331.00
662.39	331.29
662.73	332.10
663.07	332.62
663.41	331.95
663.75	331.29
664.09	330.76
664.43	329.57
664.77	328.71
665.11	327.52
665.45	326.95
665.79	326.48
666.13	325.29
666.47	324.38
666.81	323.86
667.15	322.52
667.49	322.14
667.83	322.05
668.17	320.67
668.51	320.00
668.85	319.38
669.19	320.05
669.53	318.52
669.87	316.81
670.21	315.29
670.55	314.67
670.89	315.14
671.23	313.43
671.57	312.81
671.91	312.62
672.25	312.52
672.58	312.86
672.92	311.05
673.26	310.81
673.60	310.14
673.94	309.33
674.28	309.33
674.62	308.90
674.96	307.76
675.30	307.62
675.64	307.19
675.97	306.90
676.31	305.57
676.65	305.19
676.99	305.43
677.33	304.43
677.67	303.90
678.01	302.43
678.34	302.90
678.68	303.05
679.02	301.71
679.36	300.90
679.70	299.62
680.04	299.95
680.37	299.71
680.71	299.90
681.05	299.48
681.39	298.86
681.73	297.81
682.06	297.19
682.40	296.57
682.74	296.29
683.08	296.86
683.42	296.05
683.75	296.14
684.09	295.24
684.43	295.29
684.77	294.57
685.10	294.19
685.44	293.38
685.78	292.86
686.12	292.67
686.45	291.95
686.79	291.33
687.13	291.24
687.46	290.81
687.80	290.81
688.14	290.48
688.48	290.24
688.81	290.29
689.15	290.71
689.49	290.57
689.82	290.71
690.16	288.90
690.50	288.52
690.83	287.43
691.17	286.57
691.51	286.14
691.84	286.14
692.18	285.95
692.52	285.67
692.85	285.29
693.19	286.24
693.52	286.14
693.86	285.57
694.20	284.95
694.53	284.67
694.87	283.67
695.21	283.33
695.54	282.76
695.88	281.86
696.21	280.43
696.55	279.67
696.88	278.57
697.22	278.10
697.56	278.05
697.89	277.86
698.23	278.19
698.56	277.62
698.90	277.43
699.23	276.57
699.57	276.52
699.90	276.05
700.24	274.81
700.58	274.95
700.91	275.52
701.25	277.62
701.58	278.48
701.92	279.38
702.25	279.76
702.59	279.62
702.92	280.14
703.26	281.14
703.59	281.67
703.93	284.48
704.26	285.38
704.60	285.95
704.93	286.57
705.26	286.81
705.60	287.71
705.93	287.71
706.27	289.48
706.60	290.38
706.94	291.62
707.27	291.76
707.61	292.14
707.94	291.86
708.27	289.90
708.61	289.10
708.94	288.62
709.28	287.86
709.61	287.14
709.94	287.14
710.28	286.33
710.61	286.05
710.95	283.00
711.28	283.95
711.61	283.24
711.95	283.10
712.28	281.76
712.61	280.38
712.95	281.00
713.28	280.52
713.61	279.19
713.95	277.76
714.28	277.14
714.61	275.90
714.95	275.43
715.28	274.43
715.61	273.29
715.95	272.62
716.28	271.38
716.61	271.43
716.95	270.43
717.28	269.81
717.61	269.00
717.94	268.62
718.28	266.10
718.61	265.48
718.94	264.29
719.27	264.24
719.61	264.19
719.94	262.57
720.27	261.19
720.60	260.52
720.94	260.05
721.27	259.90
721.60	260.14
721.93	259.52
722.27	260.43
722.60	260.81
722.93	260.33
723.26	260.95
723.59	260.43
723.93	260.29
724.26	260.33
724.59	260.05
724.92	260.19
725.25	260.86
725.59	260.86
725.92	261.14
726.25	260.67
726.58	260.57
726.91	260.90
727.24	261.00
727.57	260.76
727.91	260.33
728.24	260.14
728.57	259.76
728.90	259.67
729.23	258.24
729.56	259.05
729.89	259.00
730.22	258.76
730.55	258.71
730.89	258.76
731.22	258.29
731.55	258.14
731.88	257.95
732.21	257.19
732.54	256.81
732.87	256.43
733.20	256.76
733.53	256.57
733.86	256.48
734.19	256.00
734.52	256.52
734.85	258.43
735.18	258.38
735.51	259.10
735.84	259.62
736.17	260.38
736.50	258.95
736.83	261.81
737.16	261.95
737.49	262.10
737.82	261.67
738.15	262.00
738.48	261.95
738.81	261.76
739.14	261.86
739.47	261.43
739.80	261.48
740.13	261.43
740.46	261.14
740.79	260.76
741.12	260.67
741.45	260.14
741.78	258.57
742.11	258.90
742.44	257.95
742.77	257.71
743.10	257.10
743.43	256.81
743.75	253.71
744.08	256.52
744.41	256.43
744.74	256.14
745.07	255.62
745.40	255.95
745.73	256.90
746.06	256.76
746.39	257.43
746.71	257.33
747.04	257.00
747.37	256.90
747.70	257.24
748.03	257.33
748.36	257.48
748.68	257.33
749.01	256.33
749.34	256.05
749.67	256.19
750.00	256.48
750.33	258.14
750.65	258.52
750.98	255.14
751.31	254.90
751.64	255.29
751.97	256.57
752.29	256.48
752.62	255.05
752.95	254.86
753.28	254.43
753.60	253.90
753.93	254.52
754.26	254.62
754.59	253.48
754.91	252.95
755.24	252.52
755.57	251.90
755.90	251.95
756.22	251.81
756.55	251.19
756.88	250.62
757.20	249.19
757.53	248.14
757.86	248.33
758.19	248.67
758.51	248.71
758.84	247.29
759.17	247.00
759.49	247.19
759.82	248.14
760.15	247.95
760.47	248.33
760.80	247.43
761.13	247.71
761.45	247.86
761.78	247.48
762.11	247.52
762.43	247.52
762.76	247.57
763.08	248.14
763.41	248.33
763.74	248.67
764.06	248.52
764.39	248.48
764.71	248.43
765.04	247.76
765.37	247.14
765.69	246.86
766.02	246.90
766.34	246.52
766.67	245.52
767.00	246.10
767.32	247.33
767.65	248.95
767.97	248.62
768.30	249.05
768.62	249.48
768.95	249.33
769.27	249.38
769.60	249.57
769.92	248.86
770.25	248.38
770.57	247.95
770.90	247.86
771.22	247.86
771.55	247.38
771.87	247.95
772.20	248.29
772.52	250.71
772.85	253.71
773.17	253.90
773.50	253.71
773.82	253.05
774.15	251.67
774.47	249.86
774.80	249.76
775.12	249.43
775.45	249.52
775.77	249.67
776.09	250.00
776.42	250.24
776.74	250.86
777.07	250.81
777.39	250.48
777.72	250.43
778.04	250.57
778.36	250.76
778.69	250.38
779.01	250.24
779.33	248.14
779.66	244.90
779.98	244.86
780.31	245.05
780.63	246.14
780.95	246.14
781.28	246.14
781.60	245.90
781.92	245.76
782.25	245.52
782.57	245.76
782.89	245.52
783.22	245.10
783.54	244.57
783.86	244.52
784.19	244.57
784.51	245.10
784.83	244.86
785.16	244.57
785.48	244.67
785.80	244.48
786.12	244.48
786.45	244.52
786.77	244.57
787.09	244.24
787.42	243.43
787.74	244.14
788.06	244.48
788.38	244.43
788.71	244.29
789.03	244.33
789.35	244.19
789.67	243.76
789.99	243.81
790.32	243.62
790.64	243.95
790.96	246.10
791.28	245.38
791.61	245.62
791.93	246.24
792.25	246.00
792.57	247.95
792.89	247.62
793.21	248.00
793.54	247.67
793.86	247.62
794.18	247.76
794.50	247.00
794.82	247.05
795.14	247.29
795.47	247.81
795.79	247.76
796.11	247.52
796.43	247.43
796.75	247.48
797.07	247.48
797.39	247.76
797.71	245.95
798.04	246.05
798.36	245.95
798.68	245.57
799.00	245.71
799.32	244.33
799.64	244.71
799.96	244.33
800.28	244.90
800.60	244.67
800.92	244.86
801.24	244.67
801.56	244.90
801.89	244.81
802.21	244.62
802.53	244.29
802.85	244.67
803.17	245.90
803.49	245.29
803.81	245.19
804.13	244.62
804.45	244.43
804.77	244.38
805.09	244.43
805.41	244.29
805.73	244.00
806.05	243.67
806.37	243.81
806.69	243.76
807.01	243.76
807.33	244.10
807.65	242.90
807.97	244.14
808.28	243.81
808.60	243.71
808.92	243.62
809.24	245.14
809.56	244.90
809.88	243.67
810.20	244.24
810.52	245.00
810.84	244.81
811.16	244.43
811.48	244.14
811.80	244.71
812.12	244.43
812.43	244.48
812.75	244.38
813.07	243.81
813.39	243.90
813.71	243.38
814.03	243.24
814.35	243.52
814.67	242.62
814.98	242.24
815.30	242.38
815.62	241.95
815.94	240.48
816.26	241.33
816.58	241.29
816.89	241.19
817.21	240.29
817.53	240.57
817.85	240.95
818.17	241.43
818.48	240.76
818.80	241.71
819.12	241.76
819.44	241.38
819.76	241.33
820.07	241.57
820.39	241.57
820.71	241.33
821.03	241.52
821.34	241.43
821.66	241.95
821.98	242.10
822.30	242.10
822.61	243.33
822.93	242.24
823.25	242.00
823.57	241.62
823.88	242.33
824.20	242.19
824.52	242.43
824.83	242.05
825.15	241.52
825.47	241.43
825.79	241.67
826.10	241.76
826.42	241.86
826.74	241.86
827.05	242.05
827.37	242.52
827.69	242.38
828.00	242.38
828.32	242.43
828.64	242.05
828.95	243.57
829.27	243.10
829.58	243.05
829.90	243.57
830.22	244.00
830.53	243.38
830.85	242.95
831.17	242.38
831.48	242.38
831.80	243.00
832.11	242.67
832.43	242.52
832.75	242.43
833.06	243.76
833.38	242.90
833.69	242.90
834.01	243.05
834.32	242.95
834.64	242.57
834.96	242.29
835.27	242.33
835.59	241.43
835.90	240.76
836.22	240.90
836.53	240.67
836.85	240.33
837.16	242.81
837.48	243.05
837.79	243.86
838.11	244.10
838.42	243.95
838.74	244.33
839.05	243.95
839.37	244.05
839.68	242.81
840.00	242.76
840.31	242.81
840.63	242.62
840.94	242.57
841.26	242.24
841.57	242.19
841.88	242.24
842.20	241.71
842.51	241.62
842.83	241.90
843.14	244.10
843.46	244.48
843.77	242.95
844.08	243.10
844.40	242.24
844.71	242.05
845.03	241.76
845.34	241.33
845.65	241.24
845.97	241.05
846.28	241.24
846.60	241.67
846.91	241.33
847.22	240.90
847.54	241.29
847.85	241.81
848.16	241.33
848.48	240.95
848.79	242.14
849.10	242.52
849.42	242.38
849.73	239.90
850.04	239.71
850.36	239.05
850.67	239.43
850.98	239.19
851.30	239.48
851.61	239.29
851.92	239.48
852.23	240.33
852.55	240.76
852.86	240.76
853.17	241.00
853.49	241.57
853.80	242.19
854.11	242.57
854.42	242.81
854.74	242.67
855.05	242.67
855.36	241.33
855.67	241.48
855.99	241.29
856.30	244.19
856.61	243.81
856.92	244.00
857.23	243.86
857.55	244.00
857.86	243.71
858.17	244.29
858.48	243.71
858.79	243.14
859.11	243.33
859.42	243.29
859.73	242.57
860.04	242.14
860.35	241.57
860.66	240.52
860.98	240.48
861.29	241.24
861.60	241.43
861.91	241.90
862.22	241.38
862.53	241.10
862.84	238.43
863.16	239.19
863.47	238.38
863.78	238.10
864.09	238.19
864.40	238.33
864.71	238.33
865.02	238.86
865.33	238.48
865.64	237.57
865.95	237.05
866.27	239.00
866.58	239.00
866.89	239.38
867.20	239.14
867.51	238.48
867.82	238.24
868.13	238.57
868.44	238.33
868.75	238.86
869.06	239.10
869.37	239.33
869.68	238.57
869.99	238.95
870.30	238.90
870.61	239.24
870.92	238.62
871.23	238.33
871.54	238.38
871.85	239.29
872.16	239.67
872.47	239.62
872.78	238.10
873.09	238.24
873.40	238.05
873.71	238.48
874.02	239.00
874.33	238.81
874.64	238.29
874.95	238.62
875.26	238.10
875.56	237.95
875.87	238.24
876.18	238.33
876.49	241.00
876.80	240.86
877.11	240.29
877.42	240.57
877.73	240.57
878.04	240.71
878.35	240.57
878.66	240.95
878.96	240.76
879.27	240.81
879.58	240.67
879.89	240.67
880.20	241.43
880.51	241.43
880.82	241.38
881.12	241.86
881.43	241.24
881.74	241.00
882.05	240.62
882.36	240.57
882.67	240.52
882.97	238.00
883.28	238.00
883.59	238.14
883.90	238.52
884.21	238.86
884.51	238.33
884.82	237.67
885.13	237.62
885.44	238.05
885.74	237.90
886.05	237.76
886.36	237.67
886.67	236.76
886.98	237.86
887.28	238.24
887.59	238.05
887.90	238.33
888.20	238.14
888.51	239.00
888.82	238.48
889.13	238.90
889.43	240.86
889.74	240.62
890.05	240.48
890.35	240.29
890.66	240.24
890.97	240.29
891.28	240.38
891.58	240.57
891.89	240.57
892.20	240.86
892.50	241.14
892.81	241.10
893.12	241.14
893.42	239.95
893.73	239.71
894.04	239.71
894.34	239.76
894.65	240.05
894.95	239.52
895.26	239.76
895.57	240.67
895.87	238.57
896.18	239.43
896.48	239.62
896.79	239.81
897.10	240.05
897.40	240.05
897.71	240.29
898.01	240.33
898.32	240.29
898.63	240.14
898.93	240.05
899.24	240.14
899.54	240.38
899.85	240.57
900.15	240.67
900.46	240.76
900.76	241.05
901.07	241.29
901.38	241.62
901.68	241.90
901.99	240.76
902.29	240.86
902.60	240.52
902.90	240.43
903.21	240.33
903.51	240.10
903.82	240.76
904.12	240.76
904.43	240.76
904.73	240.90
905.03	240.81
905.34	243.14
905.64	243.14
905.95	242.76
906.25	242.62
906.56	242.67
906.86	242.71
907.17	242.67
907.47	242.81
907.77	242.43
908.08	242.14
908.38	242.52
908.69	242.67
908.99	243.19
909.30	243.38
909.60	243.43
909.90	243.38
910.21	242.67
910.51	242.38
910.81	242.24
911.12	242.67
911.42	242.67
911.73	239.95
912.03	240.10
912.33	241.00
912.64	240.67
912.94	240.29
913.24	239.71
913.55	239.29
913.85	238.86
914.15	239.62
914.46	239.57
914.76	238.81
915.06	238.48
915.37	237.81
915.67	237.48
915.97	237.29
916.27	236.90
916.58	236.90
916.88	236.62
917.18	236.14
917.49	237.67
917.79	237.67
918.09	238.24
918.39	238.81
918.70	238.62
919.00	238.90
919.30	240.24
919.60	240.24
919.91	240.24
920.21	240.38
920.51	239.67
920.81	239.48
921.12	240.10
921.42	240.38
921.72	240.57
922.02	240.71
922.32	240.95
922.63	241.24
922.93	242.52
923.23	242.81
923.53	242.81
923.83	240.90
924.13	241.19
924.44	241.05
924.74	241.14
925.04	241.38
925.34	241.24
925.64	240.19
925.94	240.14
926.24	241.52
926.55	241.48
926.85	241.90
927.15	241.95
927.45	241.57
927.75	241.57
928.05	241.24
928.35	241.33
928.65	241.71
928.95	241.52
929.26	240.57
929.56	241.29
929.86	241.62
930.16	241.43
930.46	241.10
930.76	241.48
931.06	240.24
931.36	239.81
931.66	240.24
931.96	240.48
932.26	240.81
932.56	239.57
932.86	239.81
933.16	239.48
933.46	239.24
933.76	239.48
934.06	239.95
934.36	241.14
934.66	241.05
934.96	240.67
935.26	241.10
935.56	241.43
935.86	240.67
936.16	240.52
936.46	240.29
936.76	240.29
937.06	239.76
937.36	240.05
937.66	240.10
937.96	239.95
938.26	239.52
938.56	239.38
938.86	239.86
939.16	239.95
939.46	240.38
939.76	240.76
940.06	240.76
940.35	239.90
940.65	238.67
940.95	238.81
941.25	238.14
941.55	237.71
941.85	237.52
942.15	238.00
942.45	238.43
942.75	238.57
943.04	238.76
943.34	239.43
943.64	239.29
943.94	238.81
944.24	238.62
944.54	238.76
944.84	238.57
945.13	238.14
945.43	238.05
945.73	238.05
946.03	237.67
946.33	237.43
946.62	237.71
946.92	237.95
947.22	238.14
947.52	238.81
947.82	239.29
948.11	239.00
948.41	238.33
948.71	237.90
949.01	238.05
949.31	237.43
949.60	236.90
949.90	237.52
950.20	237.43
950.50	237.48
950.79	237.43
951.09	237.90
951.39	237.81
951.69	237.33
951.98	237.71
952.28	238.10
952.58	238.00
952.87	237.86
953.17	238.29
953.47	237.81
953.76	237.48
954.06	236.86
954.36	236.33
954.66	236.38
954.95	237.00
955.25	237.00
955.55	237.29
955.84	237.05
956.14	236.95
956.44	237.24
956.73	237.10
957.03	237.00
957.32	236.95
957.62	236.81
957.92	237.38
958.21	236.81
958.51	239.48
958.81	239.48
959.10	240.14
959.40	240.57
959.69	241.00
959.99	241.38
960.29	241.48
960.58	241.67
960.88	242.52
961.17	242.24
961.47	242.43
961.76	242.38
962.06	242.76
962.36	242.52
962.65	242.52
962.95	242.43
963.24	242.33
963.54	242.57
963.83	242.76
964.13	242.81
964.42	242.43
964.72	240.33
965.01	240.71
965.31	239.76
965.60	239.00
965.90	240.43
966.19	239.81
966.49	240.14
966.78	240.10
967.08	239.81
967.37	239.76
967.67	239.33
967.96	239.81
968.26	239.81
968.55	240.10
968.85	240.29
969.14	240.33
969.43	240.38
969.73	240.00
970.02	239.81
970.32	239.48
970.61	239.48
970.91	238.52
971.20	238.29
971.49	238.38
971.79	238.33
972.08	236.48
972.38	237.14
972.67	237.00
972.96	237.29
973.26	237.05
973.55	237.52
973.85	237.57
974.14	237.33
974.43	237.05
974.73	236.71
975.02	235.95
975.31	235.90
975.61	236.10
975.90	235.76
976.19	235.76
976.49	236.05
976.78	236.29
977.07	236.48
977.37	236.48
977.66	236.71
977.95	236.81
978.24	237.38
978.54	237.48
978.83	237.10
979.12	237.14
979.42	237.24
979.71	236.76
980.00	237.05
980.29	237.19
980.59	237.10
980.88	237.86
981.17	238.24
981.46	238.33
981.76	238.10
982.05	239.14
982.34	239.14
982.63	238.86
982.93	238.71
983.22	239.33
983.51	239.33
983.80	239.57
984.09	239.76
984.39	239.00
984.68	238.48
984.97	238.76
985.26	238.38
985.55	238.33
985.85	238.00
986.14	238.00
986.43	238.33
986.72	237.95
987.01	236.95
987.30	237.00
987.59	236.76
987.89	237.10
988.18	236.14
988.47	236.00
988.76	236.00
989.05	235.62
989.34	235.29
989.63	236.10
989.92	235.95
990.22	235.62
990.51	236.00
990.80	236.10
991.09	236.43
991.38	236.86
991.67	236.48
991.96	236.38
992.25	236.33
992.54	235.76
992.83	235.90
993.12	235.86
993.41	236.29
993.70	237.57
993.99	237.38
994.28	237.81
994.58	238.29
994.87	238.05
995.16	238.24
995.45	238.00
995.74	236.95
996.03	237.19
996.32	237.48
996.61	237.90
996.90	237.71
997.19	237.57
997.48	237.43
997.77	237.43
998.06	237.38
998.34	237.48
998.63	237.38
998.92	237.76
999.21	238.33
999.50	238.33
999.79	237.14
1000.08	237.33
1000.37	237.14
1000.66	236.90
1000.95	237.67
1001.24	237.95
1001.53	238.24
1001.82	238.00
1002.11	237.43
1002.40	237.57
1002.68	238.24
1002.97	240.24
1003.26	240.00
1003.55	240.05
1003.84	240.67
1004.13	241.81
1004.42	241.57
1004.71	241.81
1004.99	241.76
1005.28	242.14
1005.57	241.71
1005.86	241.52
1006.15	241.29
1006.44	241.05
1006.72	241.24
1007.01	240.71
1007.30	240.52
1007.59	240.43
1007.88	241.00
1008.17	240.95
1008.45	240.62
1008.74	239.52
1009.03	238.19
1009.32	238.10
1009.60	237.95
1009.89	237.71
1010.18	236.57
1010.47	236.62
1010.76	236.05
1011.04	235.81
1011.33	235.52
1011.62	235.90
1011.91	236.24
1012.19	236.33
1012.48	236.38
1012.77	236.48
1013.05	237.90
1013.34	237.81
1013.63	237.62
1013.92	237.67
1014.20	237.48
1014.49	237.29
1014.78	237.43
1015.06	236.90
1015.35	236.71
1015.64	236.76
1015.92	236.86
1016.21	236.95
1016.50	237.00
1016.78	237.38
1017.07	237.81
1017.36	237.52
1017.64	237.05
1017.93	237.24
1018.22	237.24
1018.50	237.43
1018.79	237.19
1019.08	236.05
1019.36	236.33
1019.65	236.14
1019.93	236.52
1020.22	236.95
1020.51	238.57
1020.79	238.29
1021.08	236.00
1021.36	236.00
1021.65	237.00
1021.94	242.00
1022.22	237.00
1022.51	232.00
1022.79	247.00
1023.08	236.00
1023.36	269.00
1023.65	231.00
>>>>>End Processed Spectral Data<<<<<
